# d(e,e'p)n Central Kinematics Summary
# Beam Energy (Ei) = 11.000 GeV
# 4-Momentum Transfer (Q2) = 2.00 - 3.90 GeV (step: 0.10) 
# x-Bjorken (xbj) = 1.00 - 2.10 (step: 0.10) 
# Missing Momentum (Pr) = 0.20 - 0.61 GeV (step: 0.01) 
# Hadron Out-of-Plane Angle (phi): rotation axis is q-vector 
# thp = thq - thpq, phi = 180  (q-vector scatters at smaller  angles than proton scattering angle)# 
# # 
# Tensor Polarized Deuterium: d(e,e'p) kinematics :
# 
# Header Definitions: 
# Pr   : Central Missing Momentum [GeV/c] 
# xbj  : Bjorken x  
# kf   : e- final momentum [GeV/c] 
# th_e : e- scattering angle [deg] 
# Pf   : final proton momentum [GeV/c] 
# th_p : proton scattering angle [deg] 
# q    : 3-momentum transfer [GeV] 
# th_q : relative angle between q-vector and +z (lab)  [deg] 
# th_nq: relative angle between q-vector and recoil neutron [deg] 
# th_pq: relative angle between q-vector and knocked-out proton [deg] 
# Q2   : 4-Momentum Transfer [GeV^2]  
# 
Pr,xbj,kf,th_e,Pf,th_p,q,th_q,th_nq,th_pq,Q2
  0.2000 	 1.2000 	 9.8454 	 8.8865 	 1.8447 	 54.3979 	 1.9832 	 50.0752 	 44.0439 	 4.3227 	 2.6000
  0.2000 	 1.3000 	 9.9342 	 8.8466 	 1.7445 	 54.3216 	 1.9328 	 52.2257 	 18.6018 	 2.0959 	 2.6000
  0.2000 	 1.2000 	 9.8010 	 9.0767 	 1.8944 	 53.6519 	 2.0341 	 49.4746 	 43.6274 	 4.1773 	 2.7000
  0.2000 	 1.3000 	 9.8932 	 9.0342 	 1.7909 	 53.5136 	 1.9812 	 51.6398 	 17.0245 	 1.8737 	 2.7000
  0.2000 	 1.2000 	 9.7566 	 9.2647 	 1.9438 	 52.9315 	 2.0847 	 48.8911 	 43.2196 	 4.0404 	 2.8000
  0.2000 	 1.3000 	 9.8522 	 9.2195 	 1.8370 	 52.7210 	 2.0291 	 51.0701 	 15.3444 	 1.6509 	 2.8000
  0.2000 	 1.2000 	 9.7122 	 9.4506 	 1.9930 	 52.2349 	 2.1351 	 48.3238 	 42.8202 	 3.9111 	 2.9000
  0.2000 	 1.3000 	 9.8112 	 9.4027 	 1.8829 	 51.9384 	 2.0768 	 50.5155 	 13.5200 	 1.4229 	 2.9000
  0.2000 	 1.2000 	 9.6678 	 9.6346 	 2.0420 	 51.5608 	 2.1851 	 47.7719 	 42.4291 	 3.7889 	 3.0000
  0.2000 	 1.3000 	 9.7702 	 9.5839 	 1.9286 	 51.1579 	 2.1242 	 49.9754 	 11.4793 	 1.1826 	 3.0000
  0.2000 	 1.2000 	 9.6234 	 9.8169 	 2.0908 	 50.9077 	 2.2350 	 47.2345 	 42.0459 	 3.6732 	 3.1000
  0.2000 	 1.3000 	 9.7293 	 9.7632 	 1.9741 	 50.3643 	 2.1714 	 49.4489 	 9.0735 	 0.9154 	 3.1000
  0.2000 	 1.2000 	 9.5789 	 9.9975 	 2.1393 	 50.2743 	 2.2846 	 46.7108 	 41.6704 	 3.5635 	 3.2000
  0.2000 	 1.3000 	 9.6883 	 9.9408 	 2.0194 	 49.5151 	 2.2183 	 48.9354 	 5.8633 	 0.5797 	 3.2000
  0.2000 	 1.2000 	 9.5345 	 10.1766 	 2.1877 	 49.6594 	 2.3340 	 46.2002 	 41.3024 	 3.4593 	 3.3000
  0.2000 	 1.2000 	 9.4901 	 10.3543 	 2.2360 	 49.0622 	 2.3832 	 45.7020 	 40.9417 	 3.3602 	 3.4000
  0.2000 	 1.2000 	 9.4457 	 10.5306 	 2.2841 	 48.4815 	 2.4322 	 45.2156 	 40.5881 	 3.2659 	 3.5000
  0.2000 	 1.2000 	 9.4013 	 10.7057 	 2.3320 	 47.9165 	 2.4811 	 44.7405 	 40.2412 	 3.1760 	 3.6000
  0.2000 	 1.2000 	 9.3569 	 10.8796 	 2.3798 	 47.3665 	 2.5298 	 44.2762 	 39.9009 	 3.0902 	 3.7000
  0.2000 	 1.2000 	 9.3125 	 11.0524 	 2.4275 	 46.8305 	 2.5783 	 43.8222 	 39.5671 	 3.0083 	 3.8000
  0.2000 	 1.2000 	 9.2681 	 11.2243 	 2.4750 	 46.3080 	 2.6267 	 43.3780 	 39.2394 	 2.9300 	 3.9000
  0.2100 	 1.3000 	 9.9342 	 8.8466 	 1.7420 	 54.9647 	 1.9328 	 52.2257 	 23.3538 	 2.7390 	 2.6000
  0.2100 	 1.3000 	 9.8932 	 9.0342 	 1.7885 	 54.1817 	 1.9812 	 51.6398 	 22.1913 	 2.5418 	 2.7000
  0.2100 	 1.2000 	 9.7566 	 9.2647 	 1.9414 	 53.2645 	 2.0847 	 48.8911 	 44.8285 	 4.3734 	 2.8000
  0.2100 	 1.3000 	 9.8522 	 9.2195 	 1.8346 	 53.4214 	 2.0291 	 51.0701 	 21.0039 	 2.3514 	 2.8000
  0.2100 	 1.2000 	 9.7122 	 9.4506 	 1.9907 	 52.5621 	 2.1351 	 48.3238 	 44.4713 	 4.2382 	 2.9000
  0.2100 	 1.3000 	 9.8112 	 9.4027 	 1.8806 	 52.6818 	 2.0768 	 50.5155 	 19.7855 	 2.1663 	 2.9000
  0.2100 	 1.2000 	 9.6678 	 9.6346 	 2.0396 	 51.8823 	 2.1851 	 47.7719 	 44.1214 	 4.1104 	 3.0000
  0.2100 	 1.3000 	 9.7702 	 9.5839 	 1.9263 	 51.9606 	 2.1242 	 49.9754 	 18.5278 	 1.9853 	 3.0000
  0.2100 	 1.2000 	 9.6234 	 9.8169 	 2.0884 	 51.2238 	 2.2350 	 47.2345 	 43.7787 	 3.9894 	 3.1000
  0.2100 	 1.3000 	 9.7293 	 9.7632 	 1.9718 	 51.2558 	 2.1714 	 49.4489 	 17.2205 	 1.8069 	 3.1000
  0.2100 	 1.2000 	 9.5789 	 9.9975 	 2.1370 	 50.5853 	 2.2846 	 46.7108 	 43.4430 	 3.8746 	 3.2000
  0.2100 	 1.3000 	 9.6883 	 9.9408 	 2.0171 	 50.5647 	 2.2183 	 48.9354 	 15.8492 	 1.6293 	 3.2000
  0.2100 	 1.2000 	 9.5345 	 10.1766 	 2.1854 	 49.9657 	 2.3340 	 46.2002 	 43.1141 	 3.7655 	 3.3000
  0.2100 	 1.3000 	 9.6473 	 10.1169 	 2.0622 	 49.8847 	 2.2649 	 48.4342 	 14.3935 	 1.4505 	 3.3000
  0.2100 	 1.2000 	 9.4901 	 10.3543 	 2.2337 	 49.3639 	 2.3832 	 45.7020 	 42.7919 	 3.6619 	 3.4000
  0.2100 	 1.3000 	 9.6063 	 10.2913 	 2.1071 	 49.2121 	 2.3114 	 47.9447 	 12.8226 	 1.2674 	 3.4000
  0.2100 	 1.2000 	 9.4457 	 10.5306 	 2.2818 	 48.7788 	 2.4322 	 45.2156 	 42.4761 	 3.5632 	 3.5000
  0.2100 	 1.3000 	 9.5653 	 10.4644 	 2.1519 	 48.5416 	 2.3576 	 47.4665 	 11.0851 	 1.0751 	 3.5000
  0.2100 	 1.2000 	 9.4013 	 10.7057 	 2.3297 	 48.2096 	 2.4811 	 44.7405 	 42.1665 	 3.4691 	 3.6000
  0.2100 	 1.3000 	 9.5243 	 10.6362 	 2.1966 	 47.8637 	 2.4037 	 46.9989 	 9.0832 	 0.8648 	 3.6000
  0.2100 	 1.2000 	 9.3569 	 10.8796 	 2.3775 	 47.6555 	 2.5298 	 44.2762 	 41.8630 	 3.3793 	 3.7000
  0.2100 	 1.3000 	 9.4833 	 10.8067 	 2.2411 	 47.1564 	 2.4496 	 46.5416 	 6.5761 	 0.6149 	 3.7000
  0.2100 	 1.2000 	 9.3125 	 11.0524 	 2.4252 	 47.1157 	 2.5783 	 43.8222 	 41.5654 	 3.2935 	 3.8000
  0.2100 	 1.3000 	 9.4423 	 10.9760 	 2.2855 	 46.3005 	 2.4953 	 46.0939 	 2.2486 	 0.2066 	 3.8000
  0.2100 	 1.2000 	 9.2681 	 11.2243 	 2.4727 	 46.5895 	 2.6267 	 43.3780 	 41.2735 	 3.2115 	 3.9000
  0.2200 	 1.3000 	 9.8932 	 9.0342 	 1.7859 	 54.7308 	 1.9812 	 51.6398 	 25.9595 	 3.0910 	 2.7000
  0.2200 	 1.3000 	 9.8522 	 9.2195 	 1.8321 	 53.9801 	 2.0291 	 51.0701 	 25.0107 	 2.9100 	 2.8000
  0.2200 	 1.3000 	 9.8112 	 9.4027 	 1.8781 	 53.2523 	 2.0768 	 50.5155 	 24.0548 	 2.7368 	 2.9000
  0.2200 	 1.3000 	 9.7702 	 9.5839 	 1.9238 	 52.5458 	 2.1242 	 49.9754 	 23.0895 	 2.5705 	 3.0000
  0.2200 	 1.3000 	 9.7293 	 9.7632 	 1.9693 	 51.8590 	 2.1714 	 49.4489 	 22.1123 	 2.4101 	 3.1000
  0.2200 	 1.2000 	 9.5789 	 9.9975 	 2.1346 	 50.8866 	 2.2846 	 46.7108 	 44.9530 	 4.1759 	 3.2000
  0.2200 	 1.3000 	 9.6883 	 9.9408 	 2.0146 	 51.1905 	 2.2183 	 48.9354 	 21.1203 	 2.2551 	 3.2000
  0.2200 	 1.2000 	 9.5345 	 10.1766 	 2.1830 	 50.2620 	 2.3340 	 46.2002 	 44.6571 	 4.0619 	 3.3000
  0.2200 	 1.3000 	 9.6473 	 10.1169 	 2.0597 	 50.5388 	 2.2649 	 48.4342 	 20.1098 	 2.1046 	 3.3000
  0.2200 	 1.2000 	 9.4901 	 10.3543 	 2.2312 	 49.6554 	 2.3832 	 45.7020 	 44.3672 	 3.9535 	 3.4000
  0.2200 	 1.3000 	 9.6063 	 10.2913 	 2.1047 	 49.9025 	 2.3114 	 47.9447 	 19.0766 	 1.9578 	 3.4000
  0.2200 	 1.2000 	 9.4457 	 10.5306 	 2.2793 	 49.0658 	 2.4322 	 45.2156 	 44.0831 	 3.8502 	 3.5000
  0.2200 	 1.3000 	 9.5653 	 10.4644 	 2.1495 	 49.2804 	 2.3576 	 47.4665 	 18.0156 	 1.8140 	 3.5000
  0.2200 	 1.2000 	 9.4013 	 10.7057 	 2.3273 	 48.4923 	 2.4811 	 44.7405 	 43.8046 	 3.7518 	 3.6000
  0.2200 	 1.3000 	 9.5243 	 10.6362 	 2.1941 	 48.6711 	 2.4037 	 46.9989 	 16.9200 	 1.6722 	 3.6000
  0.2200 	 1.2000 	 9.3569 	 10.8796 	 2.3751 	 47.9340 	 2.5298 	 44.2762 	 43.5317 	 3.6578 	 3.7000
  0.2200 	 1.3000 	 9.4833 	 10.8067 	 2.2387 	 48.0731 	 2.4496 	 46.5416 	 15.7814 	 1.5315 	 3.7000
  0.2200 	 1.2000 	 9.3125 	 11.0524 	 2.4228 	 47.3902 	 2.5783 	 43.8222 	 43.2642 	 3.5680 	 3.8000
  0.2200 	 1.3000 	 9.4423 	 10.9760 	 2.2830 	 47.4847 	 2.4953 	 46.0939 	 14.5882 	 1.3908 	 3.8000
  0.2200 	 1.2000 	 9.2681 	 11.2243 	 2.4704 	 46.8602 	 2.6267 	 43.3780 	 43.0018 	 3.4822 	 3.9000
  0.2200 	 1.3000 	 9.4013 	 11.1442 	 2.3273 	 46.9040 	 2.5408 	 45.6557 	 13.3243 	 1.2483 	 3.9000
  0.2300 	 1.3000 	 9.8522 	 9.2195 	 1.8295 	 54.4676 	 2.0291 	 51.0701 	 28.1259 	 3.3976 	 2.8000
  0.2300 	 1.3000 	 9.8112 	 9.4027 	 1.8755 	 53.7430 	 2.0768 	 50.5155 	 27.3279 	 3.2275 	 2.9000
  0.2300 	 1.3000 	 9.7702 	 9.5839 	 1.9212 	 53.0407 	 2.1242 	 49.9754 	 26.5301 	 3.0653 	 3.0000
  0.2300 	 1.3000 	 9.7293 	 9.7632 	 1.9667 	 52.3592 	 2.1714 	 49.4489 	 25.7314 	 2.9103 	 3.1000
  0.2300 	 1.3000 	 9.6883 	 9.9408 	 2.0120 	 51.6973 	 2.2183 	 48.9354 	 24.9308 	 2.7619 	 3.2000
  0.2300 	 1.3000 	 9.6473 	 10.1169 	 2.0572 	 51.0536 	 2.2649 	 48.4342 	 24.1272 	 2.6194 	 3.3000
  0.2300 	 1.3000 	 9.6063 	 10.2913 	 2.1021 	 50.4271 	 2.3114 	 47.9447 	 23.3192 	 2.4823 	 3.4000
  0.2300 	 1.3000 	 9.5653 	 10.4644 	 2.1469 	 49.8166 	 2.3576 	 47.4665 	 22.5055 	 2.3501 	 3.5000
  0.2300 	 1.3000 	 9.5243 	 10.6362 	 2.1916 	 49.2212 	 2.4037 	 46.9989 	 21.6844 	 2.2223 	 3.6000
  0.2300 	 1.2000 	 9.3569 	 10.8796 	 2.3726 	 48.2042 	 2.5298 	 44.2762 	 44.9636 	 3.9280 	 3.7000
  0.2300 	 1.3000 	 9.4833 	 10.8067 	 2.2361 	 48.6400 	 2.4496 	 46.5416 	 20.8542 	 2.0984 	 3.7000
  0.2300 	 1.2000 	 9.3125 	 11.0524 	 2.4203 	 47.6563 	 2.5783 	 43.8222 	 44.7217 	 3.8342 	 3.8000
  0.2300 	 1.3000 	 9.4423 	 10.9760 	 2.2805 	 48.0719 	 2.4953 	 46.0939 	 20.0128 	 1.9780 	 3.8000
  0.2300 	 1.2000 	 9.2681 	 11.2243 	 2.4679 	 47.1224 	 2.6267 	 43.3780 	 44.4844 	 3.7444 	 3.9000
  0.2300 	 1.3000 	 9.4013 	 11.1442 	 2.3248 	 47.5162 	 2.5408 	 45.6557 	 19.1577 	 1.8606 	 3.9000
  0.2400 	 1.3000 	 9.8522 	 9.2195 	 1.8268 	 54.9112 	 2.0291 	 51.0701 	 30.6574 	 3.8411 	 2.8000
  0.2400 	 1.3000 	 9.8112 	 9.4027 	 1.8727 	 54.1859 	 2.0768 	 50.5155 	 29.9691 	 3.6704 	 2.9000
  0.2400 	 1.3000 	 9.7702 	 9.5839 	 1.9185 	 53.4836 	 2.1242 	 49.9754 	 29.2846 	 3.5082 	 3.0000
  0.2400 	 1.3000 	 9.7293 	 9.7632 	 1.9640 	 52.8027 	 2.1714 	 49.4489 	 28.6035 	 3.3538 	 3.1000
  0.2400 	 1.3000 	 9.6883 	 9.9408 	 2.0093 	 52.1420 	 2.2183 	 48.9354 	 27.9252 	 3.2066 	 3.2000
  0.2400 	 1.3000 	 9.6473 	 10.1169 	 2.0545 	 51.5002 	 2.2649 	 48.4342 	 27.2491 	 3.0660 	 3.3000
  0.2400 	 1.3000 	 9.6063 	 10.2913 	 2.0995 	 50.8761 	 2.3114 	 47.9447 	 26.5748 	 2.9314 	 3.4000
  0.2400 	 1.3000 	 9.5653 	 10.4644 	 2.1443 	 50.2689 	 2.3576 	 47.4665 	 25.9017 	 2.8024 	 3.5000
  0.2400 	 1.3000 	 9.5243 	 10.6362 	 2.1890 	 49.6775 	 2.4037 	 46.9989 	 25.2291 	 2.6786 	 3.6000
  0.2400 	 1.3000 	 9.4833 	 10.8067 	 2.2335 	 49.1010 	 2.4496 	 46.5416 	 24.5563 	 2.5595 	 3.7000
  0.2400 	 1.3000 	 9.4423 	 10.9760 	 2.2779 	 48.5387 	 2.4953 	 46.0939 	 23.8827 	 2.4448 	 3.8000
  0.2400 	 1.3000 	 9.4013 	 11.1442 	 2.3222 	 47.9898 	 2.5408 	 45.6557 	 23.2075 	 2.3341 	 3.9000
  0.2500 	 1.3000 	 9.8112 	 9.4027 	 1.8699 	 54.5967 	 2.0768 	 50.5155 	 32.1632 	 4.0812 	 2.9000
  0.2500 	 1.3000 	 9.7702 	 9.5839 	 1.9157 	 53.8923 	 2.1242 	 49.9754 	 31.5628 	 3.9169 	 3.0000
  0.2500 	 1.3000 	 9.7293 	 9.7632 	 1.9612 	 53.2097 	 2.1714 	 49.4489 	 30.9674 	 3.7608 	 3.1000
  0.2500 	 1.3000 	 9.6883 	 9.9408 	 2.0066 	 52.5476 	 2.2183 	 48.9354 	 30.3767 	 3.6122 	 3.2000
  0.2500 	 1.3000 	 9.6473 	 10.1169 	 2.0517 	 51.9049 	 2.2649 	 48.4342 	 29.7904 	 3.4707 	 3.3000
  0.2500 	 1.3000 	 9.6063 	 10.2913 	 2.0967 	 51.2803 	 2.3114 	 47.9447 	 29.2082 	 3.3356 	 3.4000
  0.2500 	 1.3000 	 9.5653 	 10.4644 	 2.1415 	 50.6730 	 2.3576 	 47.4665 	 28.6298 	 3.2065 	 3.5000
  0.2500 	 1.3000 	 9.5243 	 10.6362 	 2.1862 	 50.0819 	 2.4037 	 46.9989 	 28.0548 	 3.0830 	 3.6000
  0.2500 	 1.3000 	 9.4833 	 10.8067 	 2.2308 	 49.5061 	 2.4496 	 46.5416 	 27.4830 	 2.9646 	 3.7000
  0.2500 	 1.3000 	 9.4423 	 10.9760 	 2.2752 	 48.9449 	 2.4953 	 46.0939 	 26.9139 	 2.8510 	 3.8000
  0.2500 	 1.3000 	 9.4013 	 11.1442 	 2.3194 	 48.3975 	 2.5408 	 45.6557 	 26.3472 	 2.7418 	 3.9000
  0.2600 	 1.4000 	 9.9342 	 9.1813 	 1.7283 	 54.4965 	 1.9839 	 53.0320 	 9.7811 	 1.4645 	 2.8000
  0.2600 	 1.3000 	 9.8112 	 9.4027 	 1.8670 	 54.9842 	 2.0768 	 50.5155 	 34.0202 	 4.4687 	 2.9000
  0.2600 	 1.4000 	 9.8961 	 9.3621 	 1.7714 	 53.4736 	 2.0294 	 52.4912 	 6.7081 	 0.9824 	 2.9000
  0.2600 	 1.3000 	 9.7702 	 9.5839 	 1.9128 	 54.2764 	 2.1242 	 49.9754 	 33.4859 	 4.3010 	 3.0000
  0.2600 	 1.3000 	 9.7293 	 9.7632 	 1.9583 	 53.5908 	 2.1714 	 49.4489 	 32.9571 	 4.1419 	 3.1000
  0.2600 	 1.3000 	 9.6883 	 9.9408 	 2.0037 	 52.9260 	 2.2183 	 48.9354 	 32.4336 	 3.9907 	 3.2000
  0.2600 	 1.3000 	 9.6473 	 10.1169 	 2.0488 	 52.2809 	 2.2649 	 48.4342 	 31.9154 	 3.8468 	 3.3000
  0.2600 	 1.3000 	 9.6063 	 10.2913 	 2.0938 	 51.6543 	 2.3114 	 47.9447 	 31.4023 	 3.7096 	 3.4000
  0.2600 	 1.3000 	 9.5653 	 10.4644 	 2.1387 	 51.0452 	 2.3576 	 47.4665 	 30.8939 	 3.5787 	 3.5000
  0.2600 	 1.3000 	 9.5243 	 10.6362 	 2.1834 	 50.4526 	 2.4037 	 46.9989 	 30.3901 	 3.4537 	 3.6000
  0.2600 	 1.3000 	 9.4833 	 10.8067 	 2.2279 	 49.8756 	 2.4496 	 46.5416 	 29.8907 	 3.3340 	 3.7000
  0.2600 	 1.3000 	 9.4423 	 10.9760 	 2.2723 	 49.3134 	 2.4953 	 46.0939 	 29.3954 	 3.2195 	 3.8000
  0.2600 	 1.3000 	 9.4013 	 11.1442 	 2.3166 	 48.7653 	 2.5408 	 45.6557 	 28.9041 	 3.1096 	 3.9000
  0.2700 	 1.4000 	 9.8961 	 9.3621 	 1.7684 	 54.5785 	 2.0294 	 52.4912 	 13.8008 	 2.0873 	 2.9000
  0.2700 	 1.3000 	 9.7702 	 9.5839 	 1.9097 	 54.6421 	 2.1242 	 49.9754 	 35.1319 	 4.6667 	 3.0000
  0.2700 	 1.4000 	 9.8581 	 9.5410 	 1.8114 	 53.7373 	 2.0746 	 51.9640 	 11.9817 	 1.7733 	 3.0000
  0.2700 	 1.3000 	 9.7293 	 9.7632 	 1.9553 	 53.9526 	 2.1714 	 49.4489 	 34.6571 	 4.5038 	 3.1000
  0.2700 	 1.4000 	 9.8200 	 9.7179 	 1.8541 	 52.8835 	 2.1195 	 51.4496 	 9.8949 	 1.4339 	 3.1000
  0.2700 	 1.3000 	 9.6883 	 9.9408 	 2.0007 	 53.2844 	 2.2183 	 48.9354 	 34.1879 	 4.3490 	 3.2000
  0.2700 	 1.4000 	 9.7820 	 9.8930 	 1.8967 	 51.9855 	 2.1642 	 50.9474 	 7.3115 	 1.0381 	 3.2000
  0.2700 	 1.3000 	 9.6473 	 10.1169 	 2.0459 	 52.6361 	 2.2649 	 48.4342 	 33.7240 	 4.2019 	 3.3000
  0.2700 	 1.4000 	 9.7439 	 10.0664 	 1.9391 	 50.9006 	 2.2086 	 50.4569 	 3.1883 	 0.4437 	 3.3000
  0.2700 	 1.3000 	 9.6063 	 10.2913 	 2.0909 	 52.0065 	 2.3114 	 47.9447 	 33.2654 	 4.0618 	 3.4000
  0.2700 	 1.3000 	 9.5653 	 10.4644 	 2.1357 	 51.3946 	 2.3576 	 47.4665 	 32.8119 	 3.9281 	 3.5000
  0.2700 	 1.3000 	 9.5243 	 10.6362 	 2.1804 	 50.7995 	 2.4037 	 46.9989 	 32.3633 	 3.8006 	 3.6000
  0.2700 	 1.3000 	 9.4833 	 10.8067 	 2.2250 	 50.2202 	 2.4496 	 46.5416 	 31.9196 	 3.6787 	 3.7000
  0.2700 	 1.3000 	 9.4423 	 10.9760 	 2.2694 	 49.6560 	 2.4953 	 46.0939 	 31.4805 	 3.5620 	 3.8000
  0.2700 	 1.3000 	 9.4013 	 11.1442 	 2.3137 	 49.1060 	 2.5408 	 45.6557 	 31.0459 	 3.4503 	 3.9000
  0.2800 	 1.3000 	 9.7702 	 9.5839 	 1.9066 	 54.9933 	 2.1242 	 49.9754 	 36.5548 	 5.0179 	 3.0000
  0.2800 	 1.4000 	 9.8581 	 9.5410 	 1.8082 	 54.5130 	 2.0746 	 51.9640 	 16.6906 	 2.5490 	 3.0000
  0.2800 	 1.3000 	 9.7293 	 9.7632 	 1.9522 	 54.2996 	 2.1714 	 49.4489 	 36.1253 	 4.8507 	 3.1000
  0.2800 	 1.4000 	 9.8200 	 9.7179 	 1.8510 	 53.7421 	 2.1195 	 51.4496 	 15.3332 	 2.2925 	 3.1000
  0.2800 	 1.3000 	 9.6883 	 9.9408 	 1.9976 	 53.6273 	 2.2183 	 48.9354 	 35.7012 	 4.6919 	 3.2000
  0.2800 	 1.4000 	 9.7820 	 9.8930 	 1.8935 	 52.9808 	 2.1642 	 50.9474 	 13.8834 	 2.0334 	 3.2000
  0.2800 	 1.3000 	 9.6473 	 10.1169 	 2.0428 	 52.9751 	 2.2649 	 48.4342 	 35.2823 	 4.5410 	 3.3000
  0.2800 	 1.4000 	 9.7439 	 10.0664 	 1.9359 	 52.2236 	 2.2086 	 50.4569 	 12.3073 	 1.7667 	 3.3000
  0.2800 	 1.3000 	 9.6063 	 10.2913 	 2.0878 	 52.3420 	 2.3114 	 47.9447 	 34.8685 	 4.3973 	 3.4000
  0.2800 	 1.4000 	 9.7058 	 10.2383 	 1.9781 	 51.4620 	 2.2527 	 49.9775 	 10.5464 	 1.4846 	 3.4000
  0.2800 	 1.3000 	 9.5653 	 10.4644 	 2.1327 	 51.7268 	 2.3576 	 47.4665 	 34.4597 	 4.2603 	 3.5000
  0.2800 	 1.4000 	 9.6678 	 10.4087 	 2.0202 	 50.6804 	 2.2967 	 49.5086 	 8.4848 	 1.1718 	 3.5000
  0.2800 	 1.3000 	 9.5243 	 10.6362 	 2.1774 	 51.1286 	 2.4037 	 46.9989 	 34.0560 	 4.1297 	 3.6000
  0.2800 	 1.4000 	 9.6297 	 10.5776 	 2.0621 	 49.8371 	 2.3405 	 49.0499 	 5.8073 	 0.7872 	 3.6000
  0.2800 	 1.3000 	 9.4833 	 10.8067 	 2.2219 	 50.5464 	 2.4496 	 46.5416 	 33.6570 	 4.0049 	 3.7000
  0.2800 	 1.3000 	 9.4423 	 10.9760 	 2.2664 	 49.9794 	 2.4953 	 46.0939 	 33.2628 	 3.8855 	 3.8000
  0.2800 	 1.3000 	 9.4013 	 11.1442 	 2.3107 	 49.4269 	 2.5408 	 45.6557 	 32.8732 	 3.7712 	 3.9000
  0.2900 	 1.3000 	 9.7293 	 9.7632 	 1.9490 	 54.6345 	 2.1714 	 49.4489 	 37.4033 	 5.1856 	 3.1000
  0.2900 	 1.4000 	 9.8200 	 9.7179 	 1.8477 	 54.3770 	 2.1195 	 51.4496 	 18.9894 	 2.9274 	 3.1000
  0.2900 	 1.3000 	 9.6883 	 9.9408 	 1.9944 	 53.9578 	 2.2183 	 48.9354 	 37.0176 	 5.0224 	 3.2000
  0.2900 	 1.4000 	 9.7820 	 9.8930 	 1.8903 	 53.6494 	 2.1642 	 50.9474 	 17.8955 	 2.7020 	 3.2000
  0.2900 	 1.3000 	 9.6473 	 10.1169 	 2.0396 	 53.3015 	 2.2649 	 48.4342 	 36.6368 	 4.8673 	 3.3000
  0.2900 	 1.4000 	 9.7439 	 10.0664 	 1.9327 	 52.9368 	 2.2086 	 50.4569 	 16.7600 	 2.4799 	 3.3000
  0.2900 	 1.3000 	 9.6063 	 10.2913 	 2.0846 	 52.6644 	 2.3114 	 47.9447 	 36.2609 	 4.7197 	 3.4000
  0.2900 	 1.4000 	 9.7058 	 10.2383 	 1.9749 	 52.2367 	 2.2527 	 49.9775 	 15.5727 	 2.2592 	 3.4000
  0.2900 	 1.3000 	 9.5653 	 10.4644 	 2.1295 	 52.0455 	 2.3576 	 47.4665 	 35.8898 	 4.5791 	 3.5000
  0.2900 	 1.4000 	 9.6678 	 10.4087 	 2.0170 	 51.5466 	 2.2967 	 49.5086 	 14.3199 	 2.0380 	 3.5000
  0.2900 	 1.3000 	 9.5243 	 10.6362 	 2.1742 	 51.4438 	 2.4037 	 46.9989 	 35.5235 	 4.4449 	 3.6000
  0.2900 	 1.4000 	 9.6297 	 10.5776 	 2.0589 	 50.8630 	 2.3405 	 49.0499 	 12.9813 	 1.8131 	 3.6000
  0.2900 	 1.3000 	 9.4833 	 10.8067 	 2.2188 	 50.8583 	 2.4496 	 46.5416 	 35.1618 	 4.3167 	 3.7000
  0.2900 	 1.4000 	 9.5916 	 10.7453 	 2.1007 	 50.1815 	 2.3840 	 48.6008 	 11.5257 	 1.5806 	 3.7000
  0.2900 	 1.3000 	 9.4423 	 10.9760 	 2.2632 	 50.2882 	 2.4953 	 46.0939 	 34.8047 	 4.1942 	 3.8000
  0.2900 	 1.4000 	 9.5536 	 10.9117 	 2.1423 	 49.4947 	 2.4274 	 48.1610 	 9.9004 	 1.3337 	 3.8000
  0.2900 	 1.3000 	 9.4013 	 11.1442 	 2.3075 	 49.7327 	 2.5408 	 45.6557 	 34.4521 	 4.0770 	 3.9000
  0.2900 	 1.4000 	 9.5155 	 11.0769 	 2.1838 	 48.7892 	 2.4706 	 47.7301 	 8.0009 	 1.0591 	 3.9000
  0.3000 	 1.3000 	 9.7293 	 9.7632 	 1.9456 	 54.9596 	 2.1714 	 49.4489 	 38.5220 	 5.5107 	 3.1000
  0.3000 	 1.4000 	 9.8200 	 9.7179 	 1.8444 	 54.9134 	 2.1195 	 51.4496 	 21.8048 	 3.4639 	 3.1000
  0.3000 	 1.3000 	 9.6883 	 9.9408 	 1.9911 	 54.2782 	 2.2183 	 48.9354 	 38.1697 	 5.3429 	 3.2000
  0.3000 	 1.4000 	 9.7820 	 9.8930 	 1.8870 	 54.1996 	 2.1642 	 50.9474 	 20.9053 	 3.2521 	 3.2000
  0.3000 	 1.3000 	 9.6473 	 10.1169 	 2.0363 	 53.6175 	 2.2649 	 48.4342 	 37.8220 	 5.1833 	 3.3000
  0.3000 	 1.4000 	 9.7439 	 10.0664 	 1.9294 	 53.5037 	 2.2086 	 50.4569 	 19.9883 	 3.0468 	 3.3000
  0.3000 	 1.3000 	 9.6063 	 10.2913 	 2.0813 	 52.9763 	 2.3114 	 47.9447 	 37.4789 	 5.0315 	 3.4000
  0.3000 	 1.4000 	 9.7058 	 10.2383 	 1.9716 	 52.8243 	 2.2527 	 49.9775 	 19.0506 	 2.8468 	 3.4000
  0.3000 	 1.3000 	 9.5653 	 10.4644 	 2.1262 	 52.3534 	 2.3576 	 47.4665 	 37.1401 	 4.8869 	 3.5000
  0.3000 	 1.4000 	 9.6678 	 10.4087 	 2.0137 	 52.1599 	 2.2967 	 49.5086 	 18.0884 	 2.6512 	 3.5000
  0.3000 	 1.3000 	 9.5243 	 10.6362 	 2.1709 	 51.7479 	 2.4037 	 46.9989 	 36.8059 	 4.7489 	 3.6000
  0.3000 	 1.4000 	 9.6297 	 10.5776 	 2.0556 	 51.5089 	 2.3405 	 49.0499 	 17.0967 	 2.4590 	 3.6000
  0.3000 	 1.3000 	 9.4833 	 10.8067 	 2.2155 	 51.1588 	 2.4496 	 46.5416 	 36.4760 	 4.6172 	 3.7000
  0.3000 	 1.4000 	 9.5916 	 10.7453 	 2.0974 	 50.8699 	 2.3840 	 48.6008 	 16.0691 	 2.2690 	 3.7000
  0.3000 	 1.3000 	 9.4423 	 10.9760 	 2.2600 	 50.5852 	 2.4953 	 46.0939 	 36.1504 	 4.4913 	 3.8000
  0.3000 	 1.4000 	 9.5536 	 10.9117 	 2.1390 	 50.2410 	 2.4274 	 48.1610 	 14.9977 	 2.0800 	 3.8000
  0.3000 	 1.3000 	 9.4013 	 11.1442 	 2.3043 	 50.0265 	 2.5408 	 45.6557 	 35.8292 	 4.3708 	 3.9000
