# d(e,e'p)n Central Kinematics Summary
# Beam Energy (Ei) = 11.000 GeV
# 4-Momentum Transfer (Q2) = 2.70 - 2.79 GeV (step: 0.01) 
# x-Bjorken (xbj) = 1.00 - 2.00 (step: 0.01) 
# Missing Momentum (Pr) = 0.35 - 0.37 GeV (step: 0.01) 
# Hadron Out-of-Plane Angle (phi): rotation axis is q-vector 
# thp = thq + thpq, phi = 180  (q-vector scatters at smaller  angles than proton scattering angle)# 
# # 
# Tensor Polarized Deuterium: d(e,e'p) kinematics :
# 
# Header Definitions: 
# Pr   : Central Missing Momentum [GeV/c] 
# xbj  : Bjorken x  
# kf   : e- final momentum [GeV/c] 
# th_e : e- scattering angle [deg] 
# Pf   : final proton momentum [GeV/c] 
# th_p : proton scattering angle [deg] 
# q    : 3-momentum transfer [GeV] 
# th_q : relative angle between q-vector and +z (lab)  [deg] 
# th_nq: relative angle between q-vector and recoil neutron [deg] 
# th_pq: relative angle between q-vector and knocked-out proton [deg] 
# Q2   : 4-Momentum Transfer [GeV^2]  
# 
#! Pr[f,0]/ 	  xbj[f,1]/ 	 kf[f,2]/ 	 th_e[f,3]/ 	 Pf[f,4]/ 	 th_p[f,5]/ 	 q[f,6]/ 	 th_q[f,7]/ 	 th_nq[f,8]/ 	 th_pq[f,9]/ 	 Q2[f,10]/
  0.3500 	 1.3700 	 9.9498 	 9.0084 	 1.6788 	 60.0296 	 1.9501 	 53.0241 	 35.8036 	 7.0055 	 2.7000
  0.3500 	 1.3750 	 9.9536 	 9.0067 	 1.6744 	 60.0460 	 1.9481 	 53.1192 	 35.2370 	 6.9268 	 2.7000
  0.3500 	 1.3800 	 9.9574 	 9.0050 	 1.6701 	 60.0598 	 1.9460 	 53.2138 	 34.6657 	 6.8460 	 2.7000
  0.3500 	 1.3850 	 9.9611 	 9.0033 	 1.6658 	 60.0710 	 1.9440 	 53.3078 	 34.0892 	 6.7632 	 2.7000
  0.3500 	 1.3900 	 9.9649 	 9.0016 	 1.6615 	 60.0796 	 1.9420 	 53.4014 	 33.5072 	 6.6781 	 2.7000
  0.3500 	 1.3950 	 9.9686 	 8.9999 	 1.6572 	 60.0854 	 1.9401 	 53.4945 	 32.9195 	 6.5908 	 2.7000
  0.3500 	 1.4000 	 9.9723 	 8.9982 	 1.6530 	 60.0884 	 1.9381 	 53.5872 	 32.3256 	 6.5012 	 2.7000
  0.3500 	 1.4050 	 9.9759 	 8.9966 	 1.6488 	 60.0884 	 1.9362 	 53.6793 	 31.7252 	 6.4091 	 2.7000
  0.3500 	 1.4100 	 9.9796 	 8.9949 	 1.6446 	 60.0855 	 1.9342 	 53.7710 	 31.1179 	 6.3145 	 2.7000
  0.3500 	 1.4150 	 9.9832 	 8.9933 	 1.6404 	 60.0794 	 1.9323 	 53.8622 	 30.5031 	 6.2172 	 2.7000
  0.3500 	 1.4200 	 9.9867 	 8.9917 	 1.6363 	 60.0701 	 1.9305 	 53.9530 	 29.8803 	 6.1171 	 2.7000
  0.3500 	 1.4250 	 9.9903 	 8.9901 	 1.6322 	 60.0574 	 1.9286 	 54.0433 	 29.2491 	 6.0142 	 2.7000
  0.3500 	 1.4300 	 9.9938 	 8.9885 	 1.6281 	 60.0412 	 1.9268 	 54.1331 	 28.6088 	 5.9081 	 2.7000
  0.3500 	 1.4350 	 9.9973 	 8.9869 	 1.6241 	 60.0213 	 1.9249 	 54.2225 	 27.9587 	 5.7989 	 2.7000
  0.3500 	 1.4400 	 10.0008 	 8.9854 	 1.6201 	 59.9976 	 1.9231 	 54.3114 	 27.2980 	 5.6862 	 2.7000
  0.3500 	 1.4450 	 10.0043 	 8.9838 	 1.6161 	 59.9698 	 1.9213 	 54.3998 	 26.6259 	 5.5700 	 2.7000
  0.3500 	 1.4500 	 10.0077 	 8.9823 	 1.6121 	 59.9378 	 1.9195 	 54.4879 	 25.9416 	 5.4499 	 2.7000
  0.3500 	 1.4550 	 10.0111 	 8.9807 	 1.6081 	 59.9012 	 1.9178 	 54.5754 	 25.2439 	 5.3258 	 2.7000
  0.3500 	 1.4600 	 10.0145 	 8.9792 	 1.6042 	 59.8598 	 1.9160 	 54.6626 	 24.5316 	 5.1972 	 2.7000
  0.3500 	 1.4650 	 10.0179 	 8.9777 	 1.6003 	 59.8133 	 1.9143 	 54.7493 	 23.8034 	 5.0640 	 2.7000
  0.3500 	 1.4700 	 10.0212 	 8.9762 	 1.5965 	 59.7613 	 1.9126 	 54.8355 	 23.0576 	 4.9258 	 2.7000
  0.3500 	 1.4750 	 10.0245 	 8.9747 	 1.5926 	 59.7034 	 1.9109 	 54.9213 	 22.2926 	 4.7820 	 2.7000
  0.3500 	 1.4800 	 10.0278 	 8.9732 	 1.5888 	 59.6390 	 1.9092 	 55.0067 	 21.5062 	 4.6323 	 2.7000
  0.3500 	 1.4850 	 10.0311 	 8.9718 	 1.5850 	 59.5676 	 1.9076 	 55.0917 	 20.6958 	 4.4759 	 2.7000
  0.3500 	 1.4900 	 10.0344 	 8.9703 	 1.5812 	 59.4885 	 1.9059 	 55.1762 	 19.8585 	 4.3123 	 2.7000
  0.3500 	 1.4950 	 10.0376 	 8.9689 	 1.5774 	 59.4009 	 1.9043 	 55.2604 	 18.9906 	 4.1405 	 2.7000
  0.3500 	 1.5000 	 10.0408 	 8.9674 	 1.5737 	 59.3035 	 1.9027 	 55.3441 	 18.0878 	 3.9595 	 2.7000
  0.3500 	 1.5050 	 10.0440 	 8.9660 	 1.5700 	 59.1953 	 1.9010 	 55.4274 	 17.1443 	 3.7679 	 2.7000
  0.3500 	 1.5100 	 10.0471 	 8.9646 	 1.5663 	 59.0744 	 1.8995 	 55.5102 	 16.1530 	 3.5642 	 2.7000
  0.3500 	 1.5150 	 10.0503 	 8.9632 	 1.5626 	 58.9386 	 1.8979 	 55.5927 	 15.1044 	 3.3459 	 2.7000
  0.3500 	 1.5200 	 10.0534 	 8.9618 	 1.5590 	 58.7850 	 1.8963 	 55.6747 	 13.9856 	 3.1103 	 2.7000
  0.3500 	 1.5250 	 10.0565 	 8.9604 	 1.5554 	 58.6092 	 1.8948 	 55.7564 	 12.7780 	 2.8528 	 2.7000
  0.3500 	 1.5300 	 10.0596 	 8.9590 	 1.5518 	 58.4047 	 1.8932 	 55.8376 	 11.4535 	 2.5670 	 2.7000
  0.3500 	 1.5350 	 10.0627 	 8.9577 	 1.5482 	 58.1606 	 1.8917 	 55.9185 	 9.9654 	 2.2421 	 2.7000
  0.3500 	 1.5400 	 10.0657 	 8.9563 	 1.5446 	 57.8567 	 1.8902 	 55.9990 	 8.2254 	 1.8577 	 2.7000
  0.3500 	 1.5450 	 10.0687 	 8.9549 	 1.5411 	 57.4435 	 1.8887 	 56.0790 	 6.0186 	 1.3645 	 2.7000
  0.3500 	 1.3700 	 9.9459 	 9.0269 	 1.6833 	 59.9475 	 1.9548 	 52.9675 	 35.7631 	 6.9800 	 2.7100
  0.3500 	 1.3750 	 9.9497 	 9.0252 	 1.6789 	 59.9638 	 1.9527 	 53.0626 	 35.1951 	 6.9012 	 2.7100
  0.3500 	 1.3800 	 9.9535 	 9.0234 	 1.6745 	 59.9776 	 1.9507 	 53.1573 	 34.6222 	 6.8203 	 2.7100
  0.3500 	 1.3850 	 9.9573 	 9.0217 	 1.6702 	 59.9888 	 1.9486 	 53.2514 	 34.0441 	 6.7373 	 2.7100
  0.3500 	 1.3900 	 9.9610 	 9.0200 	 1.6659 	 59.9973 	 1.9466 	 53.3451 	 33.4606 	 6.6522 	 2.7100
  0.3500 	 1.3950 	 9.9648 	 9.0183 	 1.6616 	 60.0030 	 1.9447 	 53.4383 	 32.8712 	 6.5648 	 2.7100
  0.3500 	 1.4000 	 9.9685 	 9.0166 	 1.6573 	 60.0060 	 1.9427 	 53.5310 	 32.2755 	 6.4750 	 2.7100
  0.3500 	 1.4050 	 9.9721 	 9.0150 	 1.6531 	 60.0059 	 1.9407 	 53.6232 	 31.6733 	 6.3827 	 2.7100
  0.3500 	 1.4100 	 9.9758 	 9.0133 	 1.6489 	 60.0029 	 1.9388 	 53.7150 	 31.0640 	 6.2879 	 2.7100
  0.3500 	 1.4150 	 9.9794 	 9.0117 	 1.6448 	 59.9967 	 1.9369 	 53.8063 	 30.4473 	 6.1904 	 2.7100
  0.3500 	 1.4200 	 9.9830 	 9.0101 	 1.6406 	 59.9873 	 1.9350 	 53.8971 	 29.8224 	 6.0902 	 2.7100
  0.3500 	 1.4250 	 9.9866 	 9.0085 	 1.6365 	 59.9744 	 1.9331 	 53.9875 	 29.1890 	 5.9870 	 2.7100
  0.3500 	 1.4300 	 9.9901 	 9.0069 	 1.6324 	 59.9581 	 1.9313 	 54.0774 	 28.5464 	 5.8807 	 2.7100
  0.3500 	 1.4350 	 9.9936 	 9.0053 	 1.6284 	 59.9380 	 1.9295 	 54.1668 	 27.8939 	 5.7712 	 2.7100
  0.3500 	 1.4400 	 9.9971 	 9.0037 	 1.6243 	 59.9141 	 1.9276 	 54.2558 	 27.2306 	 5.6582 	 2.7100
  0.3500 	 1.4450 	 10.0006 	 9.0021 	 1.6203 	 59.8860 	 1.9258 	 54.3443 	 26.5559 	 5.5417 	 2.7100
  0.3500 	 1.4500 	 10.0040 	 9.0006 	 1.6163 	 59.8537 	 1.9240 	 54.4324 	 25.8687 	 5.4213 	 2.7100
  0.3500 	 1.4550 	 10.0075 	 8.9990 	 1.6124 	 59.8168 	 1.9223 	 54.5201 	 25.1679 	 5.2967 	 2.7100
  0.3500 	 1.4600 	 10.0109 	 8.9975 	 1.6085 	 59.7751 	 1.9205 	 54.6073 	 24.4523 	 5.1678 	 2.7100
  0.3500 	 1.4650 	 10.0142 	 8.9960 	 1.6045 	 59.7282 	 1.9188 	 54.6941 	 23.7205 	 5.0341 	 2.7100
  0.3500 	 1.4700 	 10.0176 	 8.9945 	 1.6007 	 59.6757 	 1.9171 	 54.7804 	 22.9710 	 4.8953 	 2.7100
  0.3500 	 1.4750 	 10.0209 	 8.9930 	 1.5968 	 59.6173 	 1.9154 	 54.8663 	 22.2019 	 4.7510 	 2.7100
  0.3500 	 1.4800 	 10.0242 	 8.9915 	 1.5930 	 59.5523 	 1.9137 	 54.9518 	 21.4109 	 4.6006 	 2.7100
  0.3500 	 1.4850 	 10.0275 	 8.9900 	 1.5891 	 59.4803 	 1.9120 	 55.0368 	 20.5955 	 4.4434 	 2.7100
  0.3500 	 1.4900 	 10.0308 	 8.9885 	 1.5854 	 59.4004 	 1.9103 	 55.1214 	 19.7527 	 4.2789 	 2.7100
  0.3500 	 1.4950 	 10.0340 	 8.9871 	 1.5816 	 59.3118 	 1.9087 	 55.2056 	 18.8786 	 4.1061 	 2.7100
  0.3500 	 1.5000 	 10.0372 	 8.9856 	 1.5778 	 59.2134 	 1.9071 	 55.2894 	 17.9688 	 3.9239 	 2.7100
  0.3500 	 1.5050 	 10.0404 	 8.9842 	 1.5741 	 59.1038 	 1.9055 	 55.3728 	 17.0172 	 3.7310 	 2.7100
  0.3500 	 1.5100 	 10.0436 	 8.9828 	 1.5704 	 58.9813 	 1.9039 	 55.4557 	 16.0165 	 3.5255 	 2.7100
  0.3500 	 1.5150 	 10.0468 	 8.9814 	 1.5667 	 58.8436 	 1.9023 	 55.5383 	 14.9568 	 3.3053 	 2.7100
  0.3500 	 1.5200 	 10.0499 	 8.9800 	 1.5631 	 58.6874 	 1.9007 	 55.6204 	 13.8242 	 3.0670 	 2.7100
  0.3500 	 1.5250 	 10.0530 	 8.9786 	 1.5594 	 58.5083 	 1.8991 	 55.7022 	 12.5993 	 2.8061 	 2.7100
  0.3500 	 1.5300 	 10.0561 	 8.9772 	 1.5558 	 58.2992 	 1.8976 	 55.7835 	 11.2516 	 2.5157 	 2.7100
  0.3500 	 1.5350 	 10.0592 	 8.9758 	 1.5522 	 58.0484 	 1.8961 	 55.8644 	 9.7303 	 2.1840 	 2.7100
  0.3500 	 1.5400 	 10.0622 	 8.9744 	 1.5487 	 57.7330 	 1.8946 	 55.9449 	 7.9359 	 1.7881 	 2.7100
  0.3500 	 1.5450 	 10.0653 	 8.9731 	 1.5451 	 57.2944 	 1.8931 	 56.0251 	 5.6121 	 1.2693 	 2.7100
  0.3500 	 1.3700 	 9.9420 	 9.0453 	 1.6877 	 59.8656 	 1.9594 	 52.9110 	 35.7227 	 6.9546 	 2.7200
  0.3500 	 1.3750 	 9.9458 	 9.0436 	 1.6833 	 59.8819 	 1.9574 	 53.0062 	 35.1532 	 6.8757 	 2.7200
  0.3500 	 1.3800 	 9.9497 	 9.0419 	 1.6789 	 59.8957 	 1.9553 	 53.1009 	 34.5788 	 6.7947 	 2.7200
  0.3500 	 1.3850 	 9.9534 	 9.0401 	 1.6746 	 59.9068 	 1.9533 	 53.1952 	 33.9991 	 6.7117 	 2.7200
  0.3500 	 1.3900 	 9.9572 	 9.0384 	 1.6703 	 59.9153 	 1.9513 	 53.2889 	 33.4139 	 6.6264 	 2.7200
  0.3500 	 1.3950 	 9.9610 	 9.0367 	 1.6660 	 59.9210 	 1.9493 	 53.3822 	 32.8228 	 6.5388 	 2.7200
  0.3500 	 1.4000 	 9.9647 	 9.0350 	 1.6617 	 59.9238 	 1.9473 	 53.4750 	 32.2255 	 6.4489 	 2.7200
  0.3500 	 1.4050 	 9.9683 	 9.0334 	 1.6575 	 59.9237 	 1.9453 	 53.5673 	 31.6214 	 6.3565 	 2.7200
  0.3500 	 1.4100 	 9.9720 	 9.0317 	 1.6533 	 59.9206 	 1.9434 	 53.6591 	 31.0102 	 6.2615 	 2.7200
  0.3500 	 1.4150 	 9.9756 	 9.0300 	 1.6491 	 59.9143 	 1.9415 	 53.7505 	 30.3914 	 6.1638 	 2.7200
  0.3500 	 1.4200 	 9.9792 	 9.0284 	 1.6449 	 59.9047 	 1.9396 	 53.8414 	 29.7645 	 6.0634 	 2.7200
  0.3500 	 1.4250 	 9.9828 	 9.0268 	 1.6408 	 59.8918 	 1.9377 	 53.9318 	 29.1289 	 5.9599 	 2.7200
  0.3500 	 1.4300 	 9.9864 	 9.0252 	 1.6367 	 59.8752 	 1.9358 	 54.0218 	 28.4840 	 5.8534 	 2.7200
  0.3500 	 1.4350 	 9.9899 	 9.0236 	 1.6327 	 59.8550 	 1.9340 	 54.1113 	 27.8290 	 5.7436 	 2.7200
  0.3500 	 1.4400 	 9.9934 	 9.0220 	 1.6286 	 59.8308 	 1.9321 	 54.2004 	 27.1632 	 5.6304 	 2.7200
  0.3500 	 1.4450 	 9.9969 	 9.0204 	 1.6246 	 59.8025 	 1.9303 	 54.2890 	 26.4858 	 5.5135 	 2.7200
  0.3500 	 1.4500 	 10.0004 	 9.0189 	 1.6206 	 59.7699 	 1.9285 	 54.3772 	 25.7957 	 5.3928 	 2.7200
  0.3500 	 1.4550 	 10.0038 	 9.0173 	 1.6166 	 59.7327 	 1.9268 	 54.4649 	 25.0918 	 5.2678 	 2.7200
  0.3500 	 1.4600 	 10.0072 	 9.0158 	 1.6127 	 59.6907 	 1.9250 	 54.5522 	 24.3729 	 5.1385 	 2.7200
  0.3500 	 1.4650 	 10.0106 	 9.0142 	 1.6088 	 59.6433 	 1.9233 	 54.6390 	 23.6376 	 5.0043 	 2.7200
  0.3500 	 1.4700 	 10.0140 	 9.0127 	 1.6049 	 59.5904 	 1.9215 	 54.7255 	 22.8842 	 4.8650 	 2.7200
  0.3500 	 1.4750 	 10.0173 	 9.0112 	 1.6010 	 59.5315 	 1.9198 	 54.8114 	 22.1109 	 4.7200 	 2.7200
  0.3500 	 1.4800 	 10.0206 	 9.0097 	 1.5971 	 59.4659 	 1.9181 	 54.8970 	 21.3154 	 4.5689 	 2.7200
  0.3500 	 1.4850 	 10.0239 	 9.0082 	 1.5933 	 59.3932 	 1.9164 	 54.9821 	 20.4950 	 4.4111 	 2.7200
  0.3500 	 1.4900 	 10.0272 	 9.0068 	 1.5895 	 59.3125 	 1.9148 	 55.0668 	 19.6465 	 4.2457 	 2.7200
  0.3500 	 1.4950 	 10.0305 	 9.0053 	 1.5857 	 59.2229 	 1.9131 	 55.1511 	 18.7662 	 4.0718 	 2.7200
  0.3500 	 1.5000 	 10.0337 	 9.0038 	 1.5820 	 59.1234 	 1.9115 	 55.2349 	 17.8492 	 3.8884 	 2.7200
  0.3500 	 1.5050 	 10.0369 	 9.0024 	 1.5782 	 59.0124 	 1.9099 	 55.3184 	 16.8895 	 3.6941 	 2.7200
  0.3500 	 1.5100 	 10.0401 	 9.0010 	 1.5745 	 58.8883 	 1.9083 	 55.4014 	 15.8792 	 3.4869 	 2.7200
  0.3500 	 1.5150 	 10.0433 	 8.9995 	 1.5708 	 58.7486 	 1.9067 	 55.4840 	 14.8080 	 3.2645 	 2.7200
  0.3500 	 1.5200 	 10.0464 	 8.9981 	 1.5672 	 58.5898 	 1.9051 	 55.5662 	 13.6613 	 3.0236 	 2.7200
  0.3500 	 1.5250 	 10.0495 	 8.9967 	 1.5635 	 58.4073 	 1.9035 	 55.6480 	 12.4183 	 2.7592 	 2.7200
  0.3500 	 1.5300 	 10.0526 	 8.9953 	 1.5599 	 58.1934 	 1.9020 	 55.7294 	 11.0464 	 2.4640 	 2.7200
  0.3500 	 1.5350 	 10.0557 	 8.9939 	 1.5563 	 57.9354 	 1.9004 	 55.8105 	 9.4898 	 2.1249 	 2.7200
  0.3500 	 1.5400 	 10.0588 	 8.9926 	 1.5527 	 57.6075 	 1.8989 	 55.8911 	 7.6360 	 1.7164 	 2.7200
  0.3500 	 1.5450 	 10.0618 	 8.9912 	 1.5492 	 57.1389 	 1.8974 	 55.9713 	 5.1748 	 1.1676 	 2.7200
  0.3500 	 1.3700 	 9.9381 	 9.0638 	 1.6922 	 59.7841 	 1.9641 	 52.8547 	 35.6823 	 6.9294 	 2.7300
  0.3500 	 1.3750 	 9.9420 	 9.0620 	 1.6877 	 59.8004 	 1.9620 	 52.9500 	 35.1113 	 6.8504 	 2.7300
  0.3500 	 1.3800 	 9.9458 	 9.0603 	 1.6833 	 59.8141 	 1.9599 	 53.0448 	 34.5354 	 6.7693 	 2.7300
  0.3500 	 1.3850 	 9.9496 	 9.0585 	 1.6790 	 59.8252 	 1.9579 	 53.1391 	 33.9542 	 6.6861 	 2.7300
  0.3500 	 1.3900 	 9.9534 	 9.0568 	 1.6747 	 59.8336 	 1.9559 	 53.2329 	 33.3673 	 6.6007 	 2.7300
  0.3500 	 1.3950 	 9.9571 	 9.0551 	 1.6704 	 59.8392 	 1.9539 	 53.3262 	 32.7745 	 6.5130 	 2.7300
  0.3500 	 1.4000 	 9.9609 	 9.0534 	 1.6661 	 59.8420 	 1.9519 	 53.4191 	 32.1754 	 6.4229 	 2.7300
  0.3500 	 1.4050 	 9.9646 	 9.0517 	 1.6618 	 59.8418 	 1.9499 	 53.5115 	 31.5695 	 6.3304 	 2.7300
  0.3500 	 1.4100 	 9.9682 	 9.0500 	 1.6576 	 59.8386 	 1.9480 	 53.6034 	 30.9564 	 6.2352 	 2.7300
  0.3500 	 1.4150 	 9.9719 	 9.0484 	 1.6534 	 59.8322 	 1.9460 	 53.6948 	 30.3356 	 6.1374 	 2.7300
  0.3500 	 1.4200 	 9.9755 	 9.0467 	 1.6493 	 59.8225 	 1.9441 	 53.7858 	 29.7066 	 6.0367 	 2.7300
  0.3500 	 1.4250 	 9.9791 	 9.0451 	 1.6451 	 59.8094 	 1.9422 	 53.8763 	 29.0688 	 5.9330 	 2.7300
  0.3500 	 1.4300 	 9.9827 	 9.0435 	 1.6410 	 59.7927 	 1.9404 	 53.9664 	 28.4216 	 5.8263 	 2.7300
  0.3500 	 1.4350 	 9.9862 	 9.0419 	 1.6369 	 59.7722 	 1.9385 	 54.0560 	 27.7642 	 5.7162 	 2.7300
  0.3500 	 1.4400 	 9.9897 	 9.0403 	 1.6329 	 59.7478 	 1.9367 	 54.1451 	 27.0958 	 5.6027 	 2.7300
  0.3500 	 1.4450 	 9.9932 	 9.0387 	 1.6288 	 59.7193 	 1.9348 	 54.2338 	 26.4156 	 5.4855 	 2.7300
  0.3500 	 1.4500 	 9.9967 	 9.0371 	 1.6248 	 59.6864 	 1.9330 	 54.3221 	 25.7226 	 5.3644 	 2.7300
  0.3500 	 1.4550 	 10.0001 	 9.0356 	 1.6209 	 59.6489 	 1.9313 	 54.4099 	 25.0156 	 5.2391 	 2.7300
  0.3500 	 1.4600 	 10.0036 	 9.0340 	 1.6169 	 59.6065 	 1.9295 	 54.4972 	 24.2934 	 5.1093 	 2.7300
  0.3500 	 1.4650 	 10.0070 	 9.0325 	 1.6130 	 59.5588 	 1.9277 	 54.5842 	 23.5545 	 4.9746 	 2.7300
  0.3500 	 1.4700 	 10.0103 	 9.0309 	 1.6091 	 59.5054 	 1.9260 	 54.6706 	 22.7973 	 4.8348 	 2.7300
  0.3500 	 1.4750 	 10.0137 	 9.0294 	 1.6052 	 59.4459 	 1.9243 	 54.7567 	 22.0198 	 4.6892 	 2.7300
  0.3500 	 1.4800 	 10.0170 	 9.0279 	 1.6013 	 59.3798 	 1.9226 	 54.8423 	 21.2196 	 4.5374 	 2.7300
  0.3500 	 1.4850 	 10.0203 	 9.0264 	 1.5975 	 59.3063 	 1.9209 	 54.9275 	 20.3941 	 4.3788 	 2.7300
  0.3500 	 1.4900 	 10.0236 	 9.0249 	 1.5937 	 59.2248 	 1.9192 	 55.0123 	 19.5400 	 4.2125 	 2.7300
  0.3500 	 1.4950 	 10.0269 	 9.0235 	 1.5899 	 59.1343 	 1.9175 	 55.0966 	 18.6533 	 4.0376 	 2.7300
  0.3500 	 1.5000 	 10.0301 	 9.0220 	 1.5861 	 59.0336 	 1.9159 	 55.1806 	 17.7291 	 3.8530 	 2.7300
  0.3500 	 1.5050 	 10.0334 	 9.0206 	 1.5824 	 58.9213 	 1.9143 	 55.2641 	 16.7610 	 3.6572 	 2.7300
  0.3500 	 1.5100 	 10.0366 	 9.0191 	 1.5786 	 58.7955 	 1.9126 	 55.3472 	 15.7409 	 3.4483 	 2.7300
  0.3500 	 1.5150 	 10.0397 	 9.0177 	 1.5749 	 58.6536 	 1.9110 	 55.4299 	 14.6579 	 3.2237 	 2.7300
  0.3500 	 1.5200 	 10.0429 	 9.0163 	 1.5713 	 58.4922 	 1.9095 	 55.5122 	 13.4968 	 2.9800 	 2.7300
  0.3500 	 1.5250 	 10.0460 	 9.0148 	 1.5676 	 58.3061 	 1.9079 	 55.5941 	 12.2351 	 2.7121 	 2.7300
  0.3500 	 1.5300 	 10.0491 	 9.0134 	 1.5640 	 58.0872 	 1.9063 	 55.6756 	 10.8379 	 2.4117 	 2.7300
  0.3500 	 1.5350 	 10.0522 	 9.0121 	 1.5604 	 57.8215 	 1.9048 	 55.7566 	 9.2435 	 2.0649 	 2.7300
  0.3500 	 1.5400 	 10.0553 	 9.0107 	 1.5568 	 57.4798 	 1.9033 	 55.8373 	 7.3245 	 1.6425 	 2.7300
  0.3500 	 1.3700 	 9.9342 	 9.0822 	 1.6966 	 59.7028 	 1.9687 	 52.7985 	 35.6419 	 6.9043 	 2.7400
  0.3500 	 1.3750 	 9.9381 	 9.0804 	 1.6922 	 59.7191 	 1.9666 	 52.8939 	 35.0695 	 6.8252 	 2.7400
  0.3500 	 1.3800 	 9.9419 	 9.0786 	 1.6878 	 59.7328 	 1.9646 	 52.9887 	 34.4920 	 6.7441 	 2.7400
  0.3500 	 1.3850 	 9.9458 	 9.0769 	 1.6834 	 59.7438 	 1.9625 	 53.0831 	 33.9092 	 6.6607 	 2.7400
  0.3500 	 1.3900 	 9.9495 	 9.0752 	 1.6791 	 59.7522 	 1.9605 	 53.1770 	 33.3207 	 6.5752 	 2.7400
  0.3500 	 1.3950 	 9.9533 	 9.0734 	 1.6747 	 59.7578 	 1.9585 	 53.2704 	 32.7262 	 6.4874 	 2.7400
  0.3500 	 1.4000 	 9.9570 	 9.0717 	 1.6705 	 59.7605 	 1.9565 	 53.3634 	 32.1253 	 6.3971 	 2.7400
  0.3500 	 1.4050 	 9.9608 	 9.0700 	 1.6662 	 59.7602 	 1.9545 	 53.4558 	 31.5176 	 6.3044 	 2.7400
  0.3500 	 1.4100 	 9.9644 	 9.0684 	 1.6620 	 59.7569 	 1.9525 	 53.5478 	 30.9026 	 6.2091 	 2.7400
  0.3500 	 1.4150 	 9.9681 	 9.0667 	 1.6578 	 59.7504 	 1.9506 	 53.6393 	 30.2798 	 6.1110 	 2.7400
  0.3500 	 1.4200 	 9.9717 	 9.0650 	 1.6536 	 59.7405 	 1.9487 	 53.7304 	 29.6487 	 6.0102 	 2.7400
  0.3500 	 1.4250 	 9.9753 	 9.0634 	 1.6494 	 59.7273 	 1.9468 	 53.8210 	 29.0087 	 5.9063 	 2.7400
  0.3500 	 1.4300 	 9.9789 	 9.0618 	 1.6453 	 59.7104 	 1.9449 	 53.9111 	 28.3591 	 5.7993 	 2.7400
  0.3500 	 1.4350 	 9.9825 	 9.0601 	 1.6412 	 59.6897 	 1.9430 	 54.0008 	 27.6993 	 5.6890 	 2.7400
  0.3500 	 1.4400 	 9.9860 	 9.0585 	 1.6371 	 59.6651 	 1.9412 	 54.0900 	 27.0283 	 5.5752 	 2.7400
  0.3500 	 1.4450 	 9.9895 	 9.0569 	 1.6331 	 59.6364 	 1.9393 	 54.1788 	 26.3454 	 5.4576 	 2.7400
  0.3500 	 1.4500 	 9.9930 	 9.0554 	 1.6291 	 59.6032 	 1.9375 	 54.2671 	 25.6495 	 5.3361 	 2.7400
  0.3500 	 1.4550 	 9.9965 	 9.0538 	 1.6251 	 59.5654 	 1.9357 	 54.3550 	 24.9394 	 5.2104 	 2.7400
  0.3500 	 1.4600 	 9.9999 	 9.0522 	 1.6211 	 59.5226 	 1.9340 	 54.4424 	 24.2138 	 5.0802 	 2.7400
  0.3500 	 1.4650 	 10.0033 	 9.0507 	 1.6172 	 59.4745 	 1.9322 	 54.5294 	 23.4714 	 4.9451 	 2.7400
  0.3500 	 1.4700 	 10.0067 	 9.0491 	 1.6132 	 59.4207 	 1.9304 	 54.6160 	 22.7102 	 4.8047 	 2.7400
  0.3500 	 1.4750 	 10.0101 	 9.0476 	 1.6094 	 59.3606 	 1.9287 	 54.7021 	 21.9284 	 4.6585 	 2.7400
  0.3500 	 1.4800 	 10.0134 	 9.0461 	 1.6055 	 59.2938 	 1.9270 	 54.7878 	 21.1236 	 4.5060 	 2.7400
  0.3500 	 1.4850 	 10.0167 	 9.0446 	 1.6016 	 59.2197 	 1.9253 	 54.8731 	 20.2930 	 4.3466 	 2.7400
  0.3500 	 1.4900 	 10.0200 	 9.0431 	 1.5978 	 59.1373 	 1.9236 	 54.9579 	 19.4332 	 4.1794 	 2.7400
  0.3500 	 1.4950 	 10.0233 	 9.0416 	 1.5940 	 59.0458 	 1.9220 	 55.0424 	 18.5400 	 4.0035 	 2.7400
  0.3500 	 1.5000 	 10.0266 	 9.0402 	 1.5902 	 58.9440 	 1.9203 	 55.1264 	 17.6084 	 3.8176 	 2.7400
  0.3500 	 1.5050 	 10.0298 	 9.0387 	 1.5865 	 58.8303 	 1.9187 	 55.2100 	 16.6319 	 3.6203 	 2.7400
  0.3500 	 1.5100 	 10.0330 	 9.0372 	 1.5827 	 58.7028 	 1.9170 	 55.2931 	 15.6018 	 3.4096 	 2.7400
  0.3500 	 1.5150 	 10.0362 	 9.0358 	 1.5790 	 58.5588 	 1.9154 	 55.3759 	 14.5067 	 3.1829 	 2.7400
  0.3500 	 1.5200 	 10.0394 	 9.0344 	 1.5753 	 58.3946 	 1.9138 	 55.4583 	 13.3305 	 2.9363 	 2.7400
  0.3500 	 1.5250 	 10.0425 	 9.0330 	 1.5717 	 58.2048 	 1.9123 	 55.5402 	 12.0495 	 2.6646 	 2.7400
  0.3500 	 1.5300 	 10.0457 	 9.0315 	 1.5680 	 57.9806 	 1.9107 	 55.6218 	 10.6256 	 2.3588 	 2.7400
  0.3500 	 1.5350 	 10.0488 	 9.0301 	 1.5644 	 57.7067 	 1.9091 	 55.7030 	 8.9911 	 2.0037 	 2.7400
  0.3500 	 1.5400 	 10.0519 	 9.0288 	 1.5608 	 57.3497 	 1.9076 	 55.7837 	 6.9999 	 1.5660 	 2.7400
  0.3500 	 1.3700 	 9.9303 	 9.1005 	 1.7010 	 59.6219 	 1.9734 	 52.7425 	 35.6015 	 6.8794 	 2.7500
  0.3500 	 1.3750 	 9.9342 	 9.0988 	 1.6966 	 59.6381 	 1.9713 	 52.8379 	 35.0276 	 6.8002 	 2.7500
  0.3500 	 1.3800 	 9.9381 	 9.0970 	 1.6922 	 59.6518 	 1.9692 	 52.9329 	 34.4486 	 6.7189 	 2.7500
  0.3500 	 1.3850 	 9.9419 	 9.0952 	 1.6878 	 59.6628 	 1.9671 	 53.0273 	 33.8642 	 6.6355 	 2.7500
  0.3500 	 1.3900 	 9.9457 	 9.0935 	 1.6834 	 59.6711 	 1.9651 	 53.1213 	 33.2741 	 6.5498 	 2.7500
  0.3500 	 1.3950 	 9.9495 	 9.0918 	 1.6791 	 59.6766 	 1.9631 	 53.2148 	 32.6779 	 6.4619 	 2.7500
