# d(e,e'p)n Central Kinematics Summary
# Beam Energy (Ei) = 11.000 GeV
# 4-Momentum Transfer (Q2) = 2.90 - 2.99 GeV (step: 0.01) 
# x-Bjorken (xbj) = 1.00 - 2.00 (step: 0.01) 
# Missing Momentum (Pr) = 0.35 - 0.37 GeV (step: 0.01) 
# Hadron Out-of-Plane Angle (phi): rotation axis is q-vector 
# thp = thq + thpq, phi = 180  (q-vector scatters at smaller  angles than proton scattering angle)# 
# # 
# Tensor Polarized Deuterium: d(e,e'p) kinematics :
# 
# Header Definitions: 
# Pr   : Central Missing Momentum [GeV/c] 
# xbj  : Bjorken x  
# kf   : e- final momentum [GeV/c] 
# th_e : e- scattering angle [deg] 
# Pf   : final proton momentum [GeV/c] 
# th_p : proton scattering angle [deg] 
# q    : 3-momentum transfer [GeV] 
# th_q : relative angle between q-vector and +z (lab)  [deg] 
# th_nq: relative angle between q-vector and recoil neutron [deg] 
# th_pq: relative angle between q-vector and knocked-out proton [deg] 
# Q2   : 4-Momentum Transfer [GeV^2]  
# 
#! Pr[f,0]/ 	  xbj[f,1]/ 	 kf[f,2]/ 	 th_e[f,3]/ 	 Pf[f,4]/ 	 th_p[f,5]/ 	 q[f,6]/ 	 th_q[f,7]/ 	 th_nq[f,8]/ 	 th_pq[f,9]/ 	 Q2[f,10]/
  0.3500 	 1.3650 	 9.8678 	 9.3756 	 1.7721 	 58.4229 	 2.0449 	 51.8226 	 35.5888 	 6.6004 	 2.9000
  0.3500 	 1.3700 	 9.8720 	 9.3736 	 1.7674 	 58.4414 	 2.0427 	 51.9195 	 34.9982 	 6.5218 	 2.9000
  0.3500 	 1.3750 	 9.8761 	 9.3717 	 1.7627 	 58.4572 	 2.0404 	 52.0160 	 34.4022 	 6.4412 	 2.9000
  0.3500 	 1.3800 	 9.8801 	 9.3697 	 1.7581 	 58.4703 	 2.0382 	 52.1120 	 33.8002 	 6.3583 	 2.9000
  0.3500 	 1.3850 	 9.8842 	 9.3678 	 1.7535 	 58.4807 	 2.0359 	 52.2076 	 33.1920 	 6.2731 	 2.9000
  0.3500 	 1.3900 	 9.8882 	 9.3659 	 1.7490 	 58.4882 	 2.0337 	 52.3026 	 32.5771 	 6.1856 	 2.9000
  0.3500 	 1.3950 	 9.8922 	 9.3640 	 1.7445 	 58.4927 	 2.0316 	 52.3971 	 31.9552 	 6.0956 	 2.9000
  0.3500 	 1.4000 	 9.8961 	 9.3621 	 1.7400 	 58.4942 	 2.0294 	 52.4912 	 31.3257 	 6.0030 	 2.9000
  0.3500 	 1.4050 	 9.9001 	 9.3603 	 1.7355 	 58.4925 	 2.0273 	 52.5848 	 30.6881 	 5.9077 	 2.9000
  0.3500 	 1.4100 	 9.9040 	 9.3584 	 1.7311 	 58.4875 	 2.0252 	 52.6780 	 30.0419 	 5.8095 	 2.9000
  0.3500 	 1.4150 	 9.9078 	 9.3566 	 1.7267 	 58.4791 	 2.0231 	 52.7706 	 29.3865 	 5.7084 	 2.9000
  0.3500 	 1.4200 	 9.9117 	 9.3548 	 1.7223 	 58.4670 	 2.0210 	 52.8628 	 28.7210 	 5.6042 	 2.9000
  0.3500 	 1.4250 	 9.9155 	 9.3530 	 1.7179 	 58.4512 	 2.0189 	 52.9546 	 28.0449 	 5.4967 	 2.9000
  0.3500 	 1.4300 	 9.9193 	 9.3512 	 1.7136 	 58.4315 	 2.0169 	 53.0459 	 27.3572 	 5.3856 	 2.9000
  0.3500 	 1.4350 	 9.9231 	 9.3494 	 1.7093 	 58.4076 	 2.0149 	 53.1367 	 26.6570 	 5.2709 	 2.9000
  0.3500 	 1.4400 	 9.9268 	 9.3476 	 1.7051 	 58.3793 	 2.0129 	 53.2271 	 25.9432 	 5.1522 	 2.9000
  0.3500 	 1.4450 	 9.9305 	 9.3459 	 1.7008 	 58.3464 	 2.0109 	 53.3170 	 25.2146 	 5.0294 	 2.9000
  0.3500 	 1.4500 	 9.9342 	 9.3442 	 1.6966 	 58.3084 	 2.0090 	 53.4065 	 24.4699 	 4.9019 	 2.9000
  0.3500 	 1.4550 	 9.9379 	 9.3424 	 1.6924 	 58.2651 	 2.0070 	 53.4955 	 23.7074 	 4.7696 	 2.9000
  0.3500 	 1.4600 	 9.9415 	 9.3407 	 1.6883 	 58.2161 	 2.0051 	 53.5841 	 22.9253 	 4.6320 	 2.9000
  0.3500 	 1.4650 	 9.9451 	 9.3390 	 1.6841 	 58.1609 	 2.0032 	 53.6723 	 22.1215 	 4.4886 	 2.9000
  0.3500 	 1.4700 	 9.9487 	 9.3373 	 1.6800 	 58.0989 	 2.0013 	 53.7600 	 21.2935 	 4.3388 	 2.9000
  0.3500 	 1.4750 	 9.9523 	 9.3357 	 1.6759 	 58.0294 	 1.9994 	 53.8473 	 20.4382 	 4.1821 	 2.9000
  0.3500 	 1.4800 	 9.9558 	 9.3340 	 1.6719 	 57.9516 	 1.9976 	 53.9342 	 19.5520 	 4.0175 	 2.9000
  0.3500 	 1.4850 	 9.9593 	 9.3323 	 1.6678 	 57.8646 	 1.9957 	 54.0206 	 18.6305 	 3.8440 	 2.9000
  0.3500 	 1.4900 	 9.9628 	 9.3307 	 1.6638 	 57.7671 	 1.9939 	 54.1066 	 17.6679 	 3.6605 	 2.9000
  0.3500 	 1.4950 	 9.9663 	 9.3291 	 1.6598 	 57.6575 	 1.9921 	 54.1922 	 16.6573 	 3.4652 	 2.9000
  0.3500 	 1.5000 	 9.9697 	 9.3275 	 1.6559 	 57.5337 	 1.9903 	 54.2774 	 15.5890 	 3.2563 	 2.9000
  0.3500 	 1.5050 	 9.9732 	 9.3258 	 1.6520 	 57.3928 	 1.9886 	 54.3622 	 14.4503 	 3.0307 	 2.9000
  0.3500 	 1.5100 	 9.9766 	 9.3243 	 1.6480 	 57.2309 	 1.9868 	 54.4465 	 13.2229 	 2.7844 	 2.9000
  0.3500 	 1.5150 	 9.9799 	 9.3227 	 1.6442 	 57.0420 	 1.9851 	 54.5305 	 11.8792 	 2.5115 	 2.9000
  0.3500 	 1.5200 	 9.9833 	 9.3211 	 1.6403 	 56.8160 	 1.9834 	 54.6140 	 10.3740 	 2.2020 	 2.9000
  0.3500 	 1.5250 	 9.9866 	 9.3195 	 1.6364 	 56.5348 	 1.9816 	 54.6971 	 8.6230 	 1.8376 	 2.9000
  0.3500 	 1.5300 	 9.9899 	 9.3180 	 1.6326 	 56.1552 	 1.9800 	 54.7798 	 6.4284 	 1.3753 	 2.9000
  0.3500 	 1.3650 	 9.8639 	 9.3936 	 1.7765 	 58.3464 	 2.0495 	 51.7688 	 35.5502 	 6.5777 	 2.9100
  0.3500 	 1.3700 	 9.8681 	 9.3917 	 1.7718 	 58.3649 	 2.0472 	 51.8658 	 34.9582 	 6.4990 	 2.9100
  0.3500 	 1.3750 	 9.8722 	 9.3897 	 1.7671 	 58.3807 	 2.0450 	 51.9624 	 34.3606 	 6.4183 	 2.9100
  0.3500 	 1.3800 	 9.8763 	 9.3878 	 1.7625 	 58.3937 	 2.0427 	 52.0584 	 33.7571 	 6.3353 	 2.9100
  0.3500 	 1.3850 	 9.8803 	 9.3858 	 1.7579 	 58.4040 	 2.0405 	 52.1540 	 33.1473 	 6.2500 	 2.9100
  0.3500 	 1.3900 	 9.8844 	 9.3839 	 1.7533 	 58.4115 	 2.0383 	 52.2491 	 32.5308 	 6.1623 	 2.9100
  0.3500 	 1.3950 	 9.8884 	 9.3820 	 1.7488 	 58.4159 	 2.0361 	 52.3438 	 31.9071 	 6.0722 	 2.9100
  0.3500 	 1.4000 	 9.8923 	 9.3801 	 1.7443 	 58.4173 	 2.0339 	 52.4379 	 31.2758 	 5.9794 	 2.9100
  0.3500 	 1.4050 	 9.8963 	 9.3782 	 1.7398 	 58.4155 	 2.0318 	 52.5316 	 30.6364 	 5.8840 	 2.9100
  0.3500 	 1.4100 	 9.9002 	 9.3764 	 1.7354 	 58.4104 	 2.0297 	 52.6248 	 29.9882 	 5.7857 	 2.9100
  0.3500 	 1.4150 	 9.9041 	 9.3745 	 1.7309 	 58.4019 	 2.0276 	 52.7175 	 29.3306 	 5.6844 	 2.9100
  0.3500 	 1.4200 	 9.9079 	 9.3727 	 1.7266 	 58.3897 	 2.0255 	 52.8098 	 28.6630 	 5.5799 	 2.9100
  0.3500 	 1.4250 	 9.9118 	 9.3709 	 1.7222 	 58.3737 	 2.0234 	 52.9016 	 27.9845 	 5.4721 	 2.9100
  0.3500 	 1.4300 	 9.9156 	 9.3691 	 1.7179 	 58.3538 	 2.0214 	 52.9930 	 27.2944 	 5.3609 	 2.9100
  0.3500 	 1.4350 	 9.9194 	 9.3673 	 1.7136 	 58.3297 	 2.0194 	 53.0839 	 26.5916 	 5.2459 	 2.9100
  0.3500 	 1.4400 	 9.9231 	 9.3655 	 1.7093 	 58.3012 	 2.0173 	 53.1743 	 25.8750 	 5.1269 	 2.9100
  0.3500 	 1.4450 	 9.9268 	 9.3638 	 1.7050 	 58.2679 	 2.0154 	 53.2643 	 25.1435 	 5.0036 	 2.9100
  0.3500 	 1.4500 	 9.9305 	 9.3620 	 1.7008 	 58.2297 	 2.0134 	 53.3538 	 24.3955 	 4.8758 	 2.9100
  0.3500 	 1.4550 	 9.9342 	 9.3603 	 1.6966 	 58.1860 	 2.0114 	 53.4430 	 23.6296 	 4.7431 	 2.9100
  0.3500 	 1.4600 	 9.9379 	 9.3586 	 1.6924 	 58.1366 	 2.0095 	 53.5316 	 22.8438 	 4.6050 	 2.9100
  0.3500 	 1.4650 	 9.9415 	 9.3569 	 1.6883 	 58.0809 	 2.0076 	 53.6199 	 22.0359 	 4.4610 	 2.9100
  0.3500 	 1.4700 	 9.9451 	 9.3552 	 1.6842 	 58.0183 	 2.0057 	 53.7077 	 21.2033 	 4.3106 	 2.9100
  0.3500 	 1.4750 	 9.9487 	 9.3535 	 1.6801 	 57.9481 	 2.0038 	 53.7950 	 20.3431 	 4.1531 	 2.9100
  0.3500 	 1.4800 	 9.9522 	 9.3518 	 1.6760 	 57.8696 	 2.0020 	 53.8820 	 19.4513 	 3.9877 	 2.9100
  0.3500 	 1.4850 	 9.9557 	 9.3501 	 1.6720 	 57.7817 	 2.0001 	 53.9685 	 18.5235 	 3.8133 	 2.9100
  0.3500 	 1.4900 	 9.9592 	 9.3485 	 1.6679 	 57.6831 	 1.9983 	 54.0546 	 17.5538 	 3.6286 	 2.9100
  0.3500 	 1.4950 	 9.9627 	 9.3469 	 1.6639 	 57.5722 	 1.9965 	 54.1402 	 16.5347 	 3.4320 	 2.9100
  0.3500 	 1.5000 	 9.9662 	 9.3452 	 1.6600 	 57.4467 	 1.9947 	 54.2255 	 15.4564 	 3.2213 	 2.9100
  0.3500 	 1.5050 	 9.9696 	 9.3436 	 1.6560 	 57.3038 	 1.9929 	 54.3103 	 14.3055 	 2.9935 	 2.9100
  0.3500 	 1.5100 	 9.9730 	 9.3420 	 1.6521 	 57.1392 	 1.9911 	 54.3947 	 13.0628 	 2.7445 	 2.9100
  0.3500 	 1.5150 	 9.9764 	 9.3404 	 1.6482 	 56.9465 	 1.9894 	 54.4787 	 11.6987 	 2.4678 	 2.9100
  0.3500 	 1.5200 	 9.9798 	 9.3388 	 1.6443 	 56.7151 	 1.9877 	 54.5623 	 10.1646 	 2.1527 	 2.9100
  0.3500 	 1.5250 	 9.9831 	 9.3373 	 1.6405 	 56.4246 	 1.9860 	 54.6455 	 8.3672 	 1.7791 	 2.9100
  0.3500 	 1.5300 	 9.9865 	 9.3357 	 1.6366 	 56.0256 	 1.9843 	 54.7283 	 6.0771 	 1.2973 	 2.9100
  0.3500 	 1.3650 	 9.8600 	 9.4117 	 1.7809 	 58.2702 	 2.0541 	 51.7151 	 35.5116 	 6.5551 	 2.9200
  0.3500 	 1.3700 	 9.8642 	 9.4097 	 1.7762 	 58.2886 	 2.0518 	 51.8122 	 34.9182 	 6.4764 	 2.9200
  0.3500 	 1.3750 	 9.8683 	 9.4077 	 1.7715 	 58.3044 	 2.0496 	 51.9088 	 34.3191 	 6.3955 	 2.9200
  0.3500 	 1.3800 	 9.8724 	 9.4058 	 1.7669 	 58.3174 	 2.0473 	 52.0050 	 33.7141 	 6.3124 	 2.9200
  0.3500 	 1.3850 	 9.8765 	 9.4038 	 1.7623 	 58.3277 	 2.0451 	 52.1006 	 33.1027 	 6.2270 	 2.9200
  0.3500 	 1.3900 	 9.8805 	 9.4019 	 1.7577 	 58.3350 	 2.0428 	 52.1958 	 32.4845 	 6.1392 	 2.9200
  0.3500 	 1.3950 	 9.8846 	 9.4000 	 1.7531 	 58.3394 	 2.0406 	 52.2905 	 31.8591 	 6.0489 	 2.9200
  0.3500 	 1.4000 	 9.8885 	 9.3981 	 1.7486 	 58.3407 	 2.0385 	 52.3847 	 31.2260 	 5.9560 	 2.9200
  0.3500 	 1.4050 	 9.8925 	 9.3962 	 1.7441 	 58.3388 	 2.0363 	 52.4785 	 30.5846 	 5.8604 	 2.9200
  0.3500 	 1.4100 	 9.8964 	 9.3943 	 1.7397 	 58.3336 	 2.0342 	 52.5717 	 29.9344 	 5.7619 	 2.9200
  0.3500 	 1.4150 	 9.9003 	 9.3925 	 1.7352 	 58.3249 	 2.0321 	 52.6645 	 29.2748 	 5.6604 	 2.9200
  0.3500 	 1.4200 	 9.9042 	 9.3906 	 1.7308 	 58.3126 	 2.0300 	 52.7569 	 28.6050 	 5.5558 	 2.9200
  0.3500 	 1.4250 	 9.9080 	 9.3888 	 1.7265 	 58.2965 	 2.0279 	 52.8487 	 27.9242 	 5.4478 	 2.9200
  0.3500 	 1.4300 	 9.9119 	 9.3870 	 1.7221 	 58.2764 	 2.0258 	 52.9402 	 27.2316 	 5.3362 	 2.9200
  0.3500 	 1.4350 	 9.9156 	 9.3852 	 1.7178 	 58.2521 	 2.0238 	 53.0311 	 26.5261 	 5.2209 	 2.9200
  0.3500 	 1.4400 	 9.9194 	 9.3834 	 1.7135 	 58.2233 	 2.0218 	 53.1217 	 25.8068 	 5.1016 	 2.9200
  0.3500 	 1.4450 	 9.9231 	 9.3816 	 1.7092 	 58.1897 	 2.0198 	 53.2117 	 25.0722 	 4.9780 	 2.9200
  0.3500 	 1.4500 	 9.9269 	 9.3799 	 1.7050 	 58.1512 	 2.0178 	 53.3013 	 24.3211 	 4.8498 	 2.9200
  0.3500 	 1.4550 	 9.9305 	 9.3781 	 1.7008 	 58.1071 	 2.0159 	 53.3905 	 23.5517 	 4.7166 	 2.9200
  0.3500 	 1.4600 	 9.9342 	 9.3764 	 1.6966 	 58.0573 	 2.0139 	 53.4793 	 22.7621 	 4.5780 	 2.9200
  0.3500 	 1.4650 	 9.9378 	 9.3747 	 1.6924 	 58.0011 	 2.0120 	 53.5676 	 21.9501 	 4.4335 	 2.9200
  0.3500 	 1.4700 	 9.9415 	 9.3730 	 1.6883 	 57.9379 	 2.0101 	 53.6554 	 21.1130 	 4.2825 	 2.9200
  0.3500 	 1.4750 	 9.9450 	 9.3713 	 1.6842 	 57.8671 	 2.0082 	 53.7429 	 20.2477 	 4.1243 	 2.9200
  0.3500 	 1.4800 	 9.9486 	 9.3696 	 1.6801 	 57.7878 	 2.0063 	 53.8299 	 19.3504 	 3.9580 	 2.9200
  0.3500 	 1.4850 	 9.9522 	 9.3679 	 1.6761 	 57.6990 	 2.0045 	 53.9164 	 18.4161 	 3.7826 	 2.9200
  0.3500 	 1.4900 	 9.9557 	 9.3663 	 1.6720 	 57.5993 	 2.0027 	 54.0026 	 17.4391 	 3.5967 	 2.9200
  0.3500 	 1.4950 	 9.9592 	 9.3646 	 1.6680 	 57.4870 	 2.0008 	 54.0883 	 16.4114 	 3.3987 	 2.9200
  0.3500 	 1.5000 	 9.9626 	 9.3630 	 1.6640 	 57.3599 	 1.9990 	 54.1736 	 15.3230 	 3.1863 	 2.9200
  0.3500 	 1.5050 	 9.9661 	 9.3614 	 1.6601 	 57.2149 	 1.9972 	 54.2585 	 14.1596 	 2.9563 	 2.9200
  0.3500 	 1.5100 	 9.9695 	 9.3597 	 1.6562 	 57.0475 	 1.9955 	 54.3430 	 12.9010 	 2.7044 	 2.9200
  0.3500 	 1.5150 	 9.9729 	 9.3581 	 1.6522 	 56.8509 	 1.9937 	 54.4271 	 11.5158 	 2.4238 	 2.9200
  0.3500 	 1.5200 	 9.9763 	 9.3566 	 1.6484 	 56.6136 	 1.9920 	 54.5108 	 9.9512 	 2.1028 	 2.9200
  0.3500 	 1.5250 	 9.9796 	 9.3550 	 1.6445 	 56.3133 	 1.9903 	 54.5940 	 8.1038 	 1.7193 	 2.9200
  0.3500 	 1.5300 	 9.9830 	 9.3534 	 1.6407 	 55.8920 	 1.9886 	 54.6769 	 5.7050 	 1.2151 	 2.9200
  0.3500 	 1.3650 	 9.8561 	 9.4297 	 1.7853 	 58.1942 	 2.0587 	 51.6616 	 35.4730 	 6.5326 	 2.9300
  0.3500 	 1.3700 	 9.8603 	 9.4277 	 1.7806 	 58.2126 	 2.0564 	 51.7588 	 34.8782 	 6.4538 	 2.9300
  0.3500 	 1.3750 	 9.8645 	 9.4257 	 1.7759 	 58.2283 	 2.0541 	 51.8555 	 34.2776 	 6.3729 	 2.9300
  0.3500 	 1.3800 	 9.8686 	 9.4237 	 1.7712 	 58.2413 	 2.0519 	 51.9517 	 33.6711 	 6.2897 	 2.9300
  0.3500 	 1.3850 	 9.8726 	 9.4218 	 1.7666 	 58.2515 	 2.0496 	 52.0474 	 33.0581 	 6.2041 	 2.9300
  0.3500 	 1.3900 	 9.8767 	 9.4198 	 1.7620 	 58.2588 	 2.0474 	 52.1426 	 32.4382 	 6.1162 	 2.9300
  0.3500 	 1.3950 	 9.8807 	 9.4179 	 1.7575 	 58.2632 	 2.0452 	 52.2374 	 31.8111 	 6.0258 	 2.9300
  0.3500 	 1.4000 	 9.8847 	 9.4160 	 1.7529 	 58.2644 	 2.0430 	 52.3317 	 31.1761 	 5.9327 	 2.9300
  0.3500 	 1.4050 	 9.8887 	 9.4141 	 1.7484 	 58.2624 	 2.0408 	 52.4255 	 30.5329 	 5.8369 	 2.9300
  0.3500 	 1.4100 	 9.8926 	 9.4122 	 1.7440 	 58.2571 	 2.0387 	 52.5188 	 29.8807 	 5.7383 	 2.9300
  0.3500 	 1.4150 	 9.8966 	 9.4104 	 1.7395 	 58.2483 	 2.0366 	 52.6117 	 29.2189 	 5.6366 	 2.9300
  0.3500 	 1.4200 	 9.9004 	 9.4085 	 1.7351 	 58.2358 	 2.0345 	 52.7041 	 28.5469 	 5.5317 	 2.9300
  0.3500 	 1.4250 	 9.9043 	 9.4067 	 1.7307 	 58.2195 	 2.0324 	 52.7960 	 27.8638 	 5.4235 	 2.9300
  0.3500 	 1.4300 	 9.9081 	 9.4049 	 1.7263 	 58.1992 	 2.0303 	 52.8875 	 27.1687 	 5.3117 	 2.9300
  0.3500 	 1.4350 	 9.9119 	 9.4030 	 1.7220 	 58.1747 	 2.0283 	 52.9786 	 26.4607 	 5.1961 	 2.9300
  0.3500 	 1.4400 	 9.9157 	 9.4012 	 1.7177 	 58.1456 	 2.0263 	 53.0691 	 25.7385 	 5.0765 	 2.9300
  0.3500 	 1.4450 	 9.9195 	 9.3995 	 1.7134 	 58.1118 	 2.0242 	 53.1593 	 25.0010 	 4.9525 	 2.9300
  0.3500 	 1.4500 	 9.9232 	 9.3977 	 1.7092 	 58.0729 	 2.0223 	 53.2490 	 24.2466 	 4.8239 	 2.9300
  0.3500 	 1.4550 	 9.9269 	 9.3959 	 1.7050 	 58.0285 	 2.0203 	 53.3382 	 23.4737 	 4.6903 	 2.9300
  0.3500 	 1.4600 	 9.9306 	 9.3942 	 1.7008 	 57.9782 	 2.0183 	 53.4270 	 22.6803 	 4.5512 	 2.9300
  0.3500 	 1.4650 	 9.9342 	 9.3925 	 1.6966 	 57.9215 	 2.0164 	 53.5154 	 21.8642 	 4.4061 	 2.9300
  0.3500 	 1.4700 	 9.9378 	 9.3908 	 1.6925 	 57.8578 	 2.0145 	 53.6033 	 21.0225 	 4.2545 	 2.9300
  0.3500 	 1.4750 	 9.9414 	 9.3890 	 1.6883 	 57.7863 	 2.0126 	 53.6908 	 20.1522 	 4.0955 	 2.9300
  0.3500 	 1.4800 	 9.9450 	 9.3874 	 1.6842 	 57.7063 	 2.0107 	 53.7779 	 19.2491 	 3.9284 	 2.9300
  0.3500 	 1.4850 	 9.9486 	 9.3857 	 1.6802 	 57.6165 	 2.0089 	 53.8645 	 18.3084 	 3.7520 	 2.9300
  0.3500 	 1.4900 	 9.9521 	 9.3840 	 1.6761 	 57.5157 	 2.0070 	 53.9508 	 17.3239 	 3.5649 	 2.9300
  0.3500 	 1.4950 	 9.9556 	 9.3824 	 1.6721 	 57.4020 	 2.0052 	 54.0366 	 16.2875 	 3.3654 	 2.9300
  0.3500 	 1.5000 	 9.9591 	 9.3807 	 1.6681 	 57.2732 	 2.0034 	 54.1220 	 15.1887 	 3.1512 	 2.9300
  0.3500 	 1.5050 	 9.9625 	 9.3791 	 1.6642 	 57.1260 	 2.0016 	 54.2069 	 14.0125 	 2.9190 	 2.9300
  0.3500 	 1.5100 	 9.9660 	 9.3775 	 1.6602 	 56.9557 	 1.9998 	 54.2915 	 12.7375 	 2.6642 	 2.9300
  0.3500 	 1.5150 	 9.9694 	 9.3758 	 1.6563 	 56.7550 	 1.9980 	 54.3756 	 11.3303 	 2.3794 	 2.9300
  0.3500 	 1.5200 	 9.9728 	 9.3743 	 1.6524 	 56.5116 	 1.9963 	 54.4594 	 9.7336 	 2.0522 	 2.9300
  0.3500 	 1.5250 	 9.9761 	 9.3727 	 1.6485 	 56.2006 	 1.9946 	 54.5427 	 7.8322 	 1.6579 	 2.9300
  0.3500 	 1.5300 	 9.9795 	 9.3711 	 1.6447 	 55.7537 	 1.9928 	 54.6256 	 5.3079 	 1.1280 	 2.9300
  0.3500 	 1.3650 	 9.8522 	 9.4477 	 1.7897 	 58.1185 	 2.0633 	 51.6082 	 35.4345 	 6.5103 	 2.9400
  0.3500 	 1.3700 	 9.8564 	 9.4457 	 1.7850 	 58.1368 	 2.0610 	 51.7054 	 34.8382 	 6.4314 	 2.9400
  0.3500 	 1.3750 	 9.8606 	 9.4437 	 1.7803 	 58.1525 	 2.0587 	 51.8022 	 34.2362 	 6.3503 	 2.9400
  0.3500 	 1.3800 	 9.8647 	 9.4417 	 1.7756 	 58.1655 	 2.0564 	 51.8985 	 33.6281 	 6.2670 	 2.9400
  0.3500 	 1.3850 	 9.8688 	 9.4397 	 1.7710 	 58.1757 	 2.0542 	 51.9943 	 33.0134 	 6.1814 	 2.9400
  0.3500 	 1.3900 	 9.8729 	 9.4378 	 1.7664 	 58.1829 	 2.0519 	 52.0896 	 32.3919 	 6.0933 	 2.9400
  0.3500 	 1.3950 	 9.8769 	 9.4358 	 1.7618 	 58.1872 	 2.0497 	 52.1844 	 31.7630 	 6.0028 	 2.9400
  0.3500 	 1.4000 	 9.8809 	 9.4339 	 1.7572 	 58.1883 	 2.0475 	 52.2787 	 31.1263 	 5.9096 	 2.9400
  0.3500 	 1.4050 	 9.8849 	 9.4320 	 1.7527 	 58.1862 	 2.0453 	 52.3726 	 30.4811 	 5.8136 	 2.9400
  0.3500 	 1.4100 	 9.8889 	 9.4301 	 1.7482 	 58.1808 	 2.0432 	 52.4660 	 29.8269 	 5.7148 	 2.9400
  0.3500 	 1.4150 	 9.8928 	 9.4282 	 1.7438 	 58.1718 	 2.0411 	 52.5590 	 29.1631 	 5.6129 	 2.9400
  0.3500 	 1.4200 	 9.8967 	 9.4264 	 1.7394 	 58.1592 	 2.0389 	 52.6514 	 28.4889 	 5.5078 	 2.9400
  0.3500 	 1.4250 	 9.9006 	 9.4245 	 1.7350 	 58.1428 	 2.0369 	 52.7434 	 27.8034 	 5.3993 	 2.9400
  0.3500 	 1.4300 	 9.9044 	 9.4227 	 1.7306 	 58.1223 	 2.0348 	 52.8350 	 27.1059 	 5.2873 	 2.9400
  0.3500 	 1.4350 	 9.9082 	 9.4209 	 1.7262 	 58.0975 	 2.0327 	 52.9261 	 26.3952 	 5.1714 	 2.9400
  0.3500 	 1.4400 	 9.9120 	 9.4191 	 1.7219 	 58.0682 	 2.0307 	 53.0168 	 25.6702 	 5.0515 	 2.9400
  0.3500 	 1.4450 	 9.9158 	 9.4173 	 1.7176 	 58.0341 	 2.0287 	 53.1070 	 24.9296 	 4.9272 	 2.9400
  0.3500 	 1.4500 	 9.9195 	 9.4155 	 1.7134 	 57.9949 	 2.0267 	 53.1967 	 24.1720 	 4.7982 	 2.9400
  0.3500 	 1.4550 	 9.9232 	 9.4137 	 1.7091 	 57.9501 	 2.0247 	 53.2860 	 23.3956 	 4.6641 	 2.9400
  0.3500 	 1.4600 	 9.9269 	 9.4120 	 1.7049 	 57.8994 	 2.0228 	 53.3749 	 22.5984 	 4.5245 	 2.9400
  0.3500 	 1.4650 	 9.9306 	 9.4102 	 1.7008 	 57.8422 	 2.0208 	 53.4633 	 21.7781 	 4.3788 	 2.9400
  0.3500 	 1.4700 	 9.9342 	 9.4085 	 1.6966 	 57.7779 	 2.0189 	 53.5513 	 20.9318 	 4.2265 	 2.9400
  0.3500 	 1.4750 	 9.9378 	 9.4068 	 1.6925 	 57.7058 	 2.0170 	 53.6389 	 20.0563 	 4.0668 	 2.9400
  0.3500 	 1.4800 	 9.9414 	 9.4051 	 1.6884 	 57.6249 	 2.0151 	 53.7261 	 19.1475 	 3.8988 	 2.9400
  0.3500 	 1.4850 	 9.9450 	 9.4034 	 1.6843 	 57.5342 	 2.0132 	 53.8128 	 18.2002 	 3.7214 	 2.9400
  0.3500 	 1.4900 	 9.9485 	 9.4017 	 1.6802 	 57.4322 	 2.0114 	 53.8991 	 17.2082 	 3.5331 	 2.9400
  0.3500 	 1.4950 	 9.9520 	 9.4001 	 1.6762 	 57.3171 	 2.0095 	 53.9849 	 16.1629 	 3.3322 	 2.9400
  0.3500 	 1.5000 	 9.9555 	 9.3984 	 1.6722 	 57.1866 	 2.0077 	 54.0704 	 15.0534 	 3.1162 	 2.9400
  0.3500 	 1.5050 	 9.9590 	 9.3968 	 1.6682 	 57.0371 	 2.0059 	 54.1554 	 13.8641 	 2.8817 	 2.9400
  0.3500 	 1.5100 	 9.9624 	 9.3951 	 1.6643 	 56.8638 	 2.0041 	 54.2401 	 12.5723 	 2.6237 	 2.9400
  0.3500 	 1.5150 	 9.9659 	 9.3935 	 1.6603 	 56.6589 	 2.0024 	 54.3243 	 11.1421 	 2.3346 	 2.9400
  0.3500 	 1.5200 	 9.9693 	 9.3919 	 1.6564 	 56.4090 	 2.0006 	 54.4081 	 9.5115 	 2.0010 	 2.9400
  0.3500 	 1.5250 	 9.9726 	 9.3903 	 1.6525 	 56.0864 	 1.9989 	 54.4915 	 7.5514 	 1.5949 	 2.9400
  0.3500 	 1.3600 	 9.8441 	 9.4677 	 1.7989 	 58.0221 	 2.0703 	 51.4571 	 35.9882 	 6.5649 	 2.9500
  0.3500 	 1.3650 	 9.8483 	 9.4656 	 1.7941 	 58.0430 	 2.0679 	 51.5550 	 35.3959 	 6.4881 	 2.9500
  0.3500 	 1.3700 	 9.8525 	 9.4636 	 1.7894 	 58.0613 	 2.0656 	 51.6523 	 34.7982 	 6.4091 	 2.9500
  0.3500 	 1.3750 	 9.8567 	 9.4616 	 1.7847 	 58.0770 	 2.0633 	 51.7491 	 34.1947 	 6.3279 	 2.9500
  0.3500 	 1.3800 	 9.8608 	 9.4596 	 1.7800 	 58.0899 	 2.0610 	 51.8454 	 33.5851 	 6.2445 	 2.9500
  0.3500 	 1.3850 	 9.8650 	 9.4576 	 1.7753 	 58.1000 	 2.0587 	 51.9413 	 32.9689 	 6.1588 	 2.9500
  0.3500 	 1.3900 	 9.8690 	 9.4557 	 1.7707 	 58.1072 	 2.0565 	 52.0366 	 32.3457 	 6.0706 	 2.9500
  0.3500 	 1.3950 	 9.8731 	 9.4537 	 1.7661 	 58.1114 	 2.0542 	 52.1315 	 31.7150 	 5.9799 	 2.9500
  0.3500 	 1.4000 	 9.8771 	 9.4518 	 1.7616 	 58.1125 	 2.0520 	 52.2259 	 31.0765 	 5.8865 	 2.9500
  0.3500 	 1.4050 	 9.8811 	 9.4499 	 1.7570 	 58.1103 	 2.0499 	 52.3199 	 30.4294 	 5.7904 	 2.9500
  0.3500 	 1.4100 	 9.8851 	 9.4480 	 1.7525 	 58.1047 	 2.0477 	 52.4134 	 29.7732 	 5.6914 	 2.9500
  0.3500 	 1.4150 	 9.8890 	 9.4461 	 1.7481 	 58.0957 	 2.0456 	 52.5064 	 29.1073 	 5.5893 	 2.9500
  0.3500 	 1.4200 	 9.8929 	 9.4442 	 1.7436 	 58.0829 	 2.0434 	 52.5989 	 28.4308 	 5.4840 	 2.9500
  0.3500 	 1.4250 	 9.8968 	 9.4424 	 1.7392 	 58.0663 	 2.0413 	 52.6910 	 27.7430 	 5.3753 	 2.9500
  0.3500 	 1.4300 	 9.9007 	 9.4405 	 1.7348 	 58.0456 	 2.0392 	 52.7826 	 27.0430 	 5.2630 	 2.9500
  0.3500 	 1.4350 	 9.9045 	 9.4387 	 1.7305 	 58.0206 	 2.0372 	 52.8738 	 26.3296 	 5.1468 	 2.9500
