# d(e,e'p)n Central Kinematics Summary
# Beam Energy (Ei) = 11.000 GeV
# 4-Momentum Transfer (Q2) = 2.30 - 2.39 GeV (step: 0.01) 
# x-Bjorken (xbj) = 1.00 - 2.00 (step: 0.01) 
# Missing Momentum (Pr) = 0.35 - 0.37 GeV (step: 0.01) 
# Hadron Out-of-Plane Angle (phi): rotation axis is q-vector 
# thp = thq + thpq, phi = 180  (q-vector scatters at smaller  angles than proton scattering angle)# 
# # 
# Tensor Polarized Deuterium: d(e,e'p) kinematics :
# 
# Header Definitions: 
# Pr   : Central Missing Momentum [GeV/c] 
# xbj  : Bjorken x  
# kf   : e- final momentum [GeV/c] 
# th_e : e- scattering angle [deg] 
# Pf   : final proton momentum [GeV/c] 
# th_p : proton scattering angle [deg] 
# q    : 3-momentum transfer [GeV] 
# th_q : relative angle between q-vector and +z (lab)  [deg] 
# th_nq: relative angle between q-vector and recoil neutron [deg] 
# th_pq: relative angle between q-vector and knocked-out proton [deg] 
# Q2   : 4-Momentum Transfer [GeV^2]  
# 
#! Pr[f,0]/ 	  xbj[f,1]/ 	 kf[f,2]/ 	 th_e[f,3]/ 	 Pf[f,4]/ 	 th_p[f,5]/ 	 q[f,6]/ 	 th_q[f,7]/ 	 th_nq[f,8]/ 	 th_pq[f,9]/ 	 Q2[f,10]/
  0.3500 	 1.3850 	 10.1150 	 8.2448 	 1.4866 	 63.6341 	 1.7559 	 55.6997 	 35.8959 	 7.9345 	 2.3000
  0.3500 	 1.3900 	 10.1182 	 8.2435 	 1.4828 	 63.6442 	 1.7543 	 55.7898 	 35.3780 	 7.8545 	 2.3000
  0.3500 	 1.3950 	 10.1214 	 8.2422 	 1.4791 	 63.6520 	 1.7527 	 55.8794 	 34.8566 	 7.7726 	 2.3000
  0.3500 	 1.4000 	 10.1245 	 8.2409 	 1.4754 	 63.6573 	 1.7511 	 55.9685 	 34.3312 	 7.6888 	 2.3000
  0.3500 	 1.4050 	 10.1276 	 8.2397 	 1.4717 	 63.6601 	 1.7496 	 56.0572 	 33.8018 	 7.6029 	 2.3000
  0.3500 	 1.4100 	 10.1307 	 8.2384 	 1.4680 	 63.6605 	 1.7480 	 56.1454 	 33.2681 	 7.5151 	 2.3000
  0.3500 	 1.4150 	 10.1338 	 8.2372 	 1.4644 	 63.6582 	 1.7465 	 56.2331 	 32.7298 	 7.4250 	 2.3000
  0.3500 	 1.4200 	 10.1369 	 8.2359 	 1.4607 	 63.6532 	 1.7450 	 56.3204 	 32.1866 	 7.3328 	 2.3000
  0.3500 	 1.4250 	 10.1399 	 8.2347 	 1.4571 	 63.6455 	 1.7435 	 56.4072 	 31.6383 	 7.2384 	 2.3000
  0.3500 	 1.4300 	 10.1429 	 8.2335 	 1.4536 	 63.6350 	 1.7420 	 56.4935 	 31.0846 	 7.1415 	 2.3000
  0.3500 	 1.4350 	 10.1459 	 8.2323 	 1.4500 	 63.6216 	 1.7406 	 56.5794 	 30.5250 	 7.0422 	 2.3000
  0.3500 	 1.4400 	 10.1488 	 8.2311 	 1.4465 	 63.6051 	 1.7391 	 56.6648 	 29.9592 	 6.9403 	 2.3000
  0.3500 	 1.4450 	 10.1518 	 8.2299 	 1.4430 	 63.5856 	 1.7377 	 56.7498 	 29.3869 	 6.8358 	 2.3000
  0.3500 	 1.4500 	 10.1547 	 8.2287 	 1.4395 	 63.5628 	 1.7362 	 56.8343 	 28.8075 	 6.7285 	 2.3000
  0.3500 	 1.4550 	 10.1576 	 8.2275 	 1.4360 	 63.5367 	 1.7348 	 56.9184 	 28.2206 	 6.6183 	 2.3000
  0.3500 	 1.4600 	 10.1605 	 8.2263 	 1.4325 	 63.5070 	 1.7334 	 57.0020 	 27.6257 	 6.5050 	 2.3000
  0.3500 	 1.4650 	 10.1634 	 8.2252 	 1.4291 	 63.4738 	 1.7320 	 57.0852 	 27.0223 	 6.3885 	 2.3000
  0.3500 	 1.4700 	 10.1662 	 8.2240 	 1.4257 	 63.4367 	 1.7307 	 57.1680 	 26.4095 	 6.2687 	 2.3000
  0.3500 	 1.4750 	 10.1690 	 8.2229 	 1.4223 	 63.3956 	 1.7293 	 57.2503 	 25.7868 	 6.1452 	 2.3000
  0.3500 	 1.4800 	 10.1719 	 8.2217 	 1.4190 	 63.3502 	 1.7280 	 57.3322 	 25.1534 	 6.0180 	 2.3000
  0.3500 	 1.4850 	 10.1746 	 8.2206 	 1.4156 	 63.3005 	 1.7266 	 57.4137 	 24.5084 	 5.8867 	 2.3000
  0.3500 	 1.4900 	 10.1774 	 8.2195 	 1.4123 	 63.2460 	 1.7253 	 57.4948 	 23.8507 	 5.7512 	 2.3000
  0.3500 	 1.4950 	 10.1802 	 8.2184 	 1.4090 	 63.1865 	 1.7240 	 57.5754 	 23.1794 	 5.6110 	 2.3000
  0.3500 	 1.5000 	 10.1829 	 8.2173 	 1.4057 	 63.1216 	 1.7227 	 57.6556 	 22.4930 	 5.4660 	 2.3000
  0.3500 	 1.5050 	 10.1856 	 8.2162 	 1.4024 	 63.0510 	 1.7214 	 57.7355 	 21.7901 	 5.3155 	 2.3000
  0.3500 	 1.5100 	 10.1883 	 8.2151 	 1.3992 	 62.9741 	 1.7201 	 57.8148 	 21.0690 	 5.1593 	 2.3000
  0.3500 	 1.5150 	 10.1910 	 8.2140 	 1.3960 	 62.8905 	 1.7189 	 57.8938 	 20.3278 	 4.9967 	 2.3000
  0.3500 	 1.5200 	 10.1936 	 8.2129 	 1.3928 	 62.7996 	 1.7176 	 57.9724 	 19.5640 	 4.8271 	 2.3000
  0.3500 	 1.5250 	 10.1963 	 8.2118 	 1.3896 	 62.7005 	 1.7164 	 58.0506 	 18.7749 	 4.6499 	 2.3000
  0.3500 	 1.5300 	 10.1989 	 8.2108 	 1.3864 	 62.5923 	 1.7151 	 58.1284 	 17.9570 	 4.4640 	 2.3000
  0.3500 	 1.5350 	 10.2015 	 8.2097 	 1.3833 	 62.4740 	 1.7139 	 58.2058 	 17.1063 	 4.2683 	 2.3000
  0.3500 	 1.5400 	 10.2041 	 8.2087 	 1.3801 	 62.3442 	 1.7127 	 58.2828 	 16.2173 	 4.0614 	 2.3000
  0.3500 	 1.5450 	 10.2067 	 8.2077 	 1.3770 	 62.2010 	 1.7115 	 58.3594 	 15.2835 	 3.8417 	 2.3000
  0.3500 	 1.5500 	 10.2093 	 8.2066 	 1.3739 	 62.0421 	 1.7103 	 58.4356 	 14.2959 	 3.6066 	 2.3000
  0.3500 	 1.5550 	 10.2118 	 8.2056 	 1.3708 	 61.8644 	 1.7092 	 58.5114 	 13.2424 	 3.3530 	 2.3000
  0.3500 	 1.5600 	 10.2143 	 8.2046 	 1.3678 	 61.6631 	 1.7080 	 58.5868 	 12.1058 	 3.0763 	 2.3000
  0.3500 	 1.5650 	 10.2168 	 8.2036 	 1.3647 	 61.4315 	 1.7069 	 58.6619 	 10.8600 	 2.7696 	 2.3000
  0.3500 	 1.5700 	 10.2193 	 8.2026 	 1.3617 	 61.1582 	 1.7057 	 58.7366 	 9.4617 	 2.4217 	 2.3000
  0.3500 	 1.5750 	 10.2218 	 8.2016 	 1.3587 	 60.8219 	 1.7046 	 58.8109 	 7.8296 	 2.0111 	 2.3000
  0.3500 	 1.5800 	 10.2243 	 8.2006 	 1.3557 	 60.3717 	 1.7035 	 58.8848 	 5.7682 	 1.4869 	 2.3000
  0.3500 	 1.3850 	 10.1112 	 8.2643 	 1.4911 	 63.5378 	 1.7607 	 55.6364 	 35.8507 	 7.9015 	 2.3100
  0.3500 	 1.3900 	 10.1144 	 8.2630 	 1.4874 	 63.5479 	 1.7591 	 55.7266 	 35.3313 	 7.8213 	 2.3100
  0.3500 	 1.3950 	 10.1176 	 8.2617 	 1.4836 	 63.5556 	 1.7575 	 55.8163 	 34.8082 	 7.7393 	 2.3100
  0.3500 	 1.4000 	 10.1207 	 8.2604 	 1.4799 	 63.5609 	 1.7559 	 55.9055 	 34.2812 	 7.6553 	 2.3100
  0.3500 	 1.4050 	 10.1239 	 8.2592 	 1.4762 	 63.5637 	 1.7543 	 55.9943 	 33.7501 	 7.5694 	 2.3100
  0.3500 	 1.4100 	 10.1270 	 8.2579 	 1.4725 	 63.5639 	 1.7528 	 56.0826 	 33.2146 	 7.4813 	 2.3100
  0.3500 	 1.4150 	 10.1300 	 8.2566 	 1.4688 	 63.5615 	 1.7512 	 56.1704 	 32.6744 	 7.3911 	 2.3100
  0.3500 	 1.4200 	 10.1331 	 8.2554 	 1.4652 	 63.5565 	 1.7497 	 56.2578 	 32.1293 	 7.2987 	 2.3100
  0.3500 	 1.4250 	 10.1361 	 8.2541 	 1.4616 	 63.5487 	 1.7482 	 56.3447 	 31.5790 	 7.2040 	 2.3100
  0.3500 	 1.4300 	 10.1392 	 8.2529 	 1.4580 	 63.5381 	 1.7467 	 56.4311 	 31.0232 	 7.1070 	 2.3100
  0.3500 	 1.4350 	 10.1422 	 8.2517 	 1.4544 	 63.5245 	 1.7452 	 56.5171 	 30.4615 	 7.0074 	 2.3100
  0.3500 	 1.4400 	 10.1451 	 8.2505 	 1.4509 	 63.5079 	 1.7438 	 56.6026 	 29.8935 	 6.9053 	 2.3100
  0.3500 	 1.4450 	 10.1481 	 8.2493 	 1.4473 	 63.4882 	 1.7423 	 56.6877 	 29.3189 	 6.8005 	 2.3100
  0.3500 	 1.4500 	 10.1510 	 8.2481 	 1.4438 	 63.4652 	 1.7409 	 56.7723 	 28.7371 	 6.6929 	 2.3100
  0.3500 	 1.4550 	 10.1540 	 8.2469 	 1.4404 	 63.4388 	 1.7395 	 56.8565 	 28.1477 	 6.5824 	 2.3100
  0.3500 	 1.4600 	 10.1569 	 8.2457 	 1.4369 	 63.4090 	 1.7381 	 56.9402 	 27.5501 	 6.4687 	 2.3100
  0.3500 	 1.4650 	 10.1597 	 8.2445 	 1.4335 	 63.3754 	 1.7367 	 57.0235 	 26.9438 	 6.3519 	 2.3100
  0.3500 	 1.4700 	 10.1626 	 8.2434 	 1.4301 	 63.3380 	 1.7353 	 57.1064 	 26.3282 	 6.2316 	 2.3100
  0.3500 	 1.4750 	 10.1654 	 8.2422 	 1.4267 	 63.2966 	 1.7339 	 57.1888 	 25.7024 	 6.1077 	 2.3100
  0.3500 	 1.4800 	 10.1683 	 8.2411 	 1.4233 	 63.2509 	 1.7326 	 57.2708 	 25.0657 	 5.9800 	 2.3100
  0.3500 	 1.4850 	 10.1711 	 8.2399 	 1.4199 	 63.2007 	 1.7312 	 57.3524 	 24.4171 	 5.8483 	 2.3100
  0.3500 	 1.4900 	 10.1738 	 8.2388 	 1.4166 	 63.1457 	 1.7299 	 57.4335 	 23.7558 	 5.7121 	 2.3100
  0.3500 	 1.4950 	 10.1766 	 8.2377 	 1.4133 	 63.0856 	 1.7286 	 57.5143 	 23.0804 	 5.5713 	 2.3100
  0.3500 	 1.5000 	 10.1793 	 8.2366 	 1.4100 	 63.0202 	 1.7273 	 57.5946 	 22.3897 	 5.4256 	 2.3100
  0.3500 	 1.5050 	 10.1821 	 8.2355 	 1.4067 	 62.9488 	 1.7260 	 57.6745 	 21.6822 	 5.2743 	 2.3100
  0.3500 	 1.5100 	 10.1848 	 8.2344 	 1.4034 	 62.8712 	 1.7247 	 57.7540 	 20.9561 	 5.1172 	 2.3100
  0.3500 	 1.5150 	 10.1875 	 8.2333 	 1.4002 	 62.7867 	 1.7234 	 57.8331 	 20.2093 	 4.9537 	 2.3100
  0.3500 	 1.5200 	 10.1901 	 8.2322 	 1.3970 	 62.6948 	 1.7222 	 57.9118 	 19.4395 	 4.7830 	 2.3100
  0.3500 	 1.5250 	 10.1928 	 8.2311 	 1.3938 	 62.5945 	 1.7209 	 57.9900 	 18.6436 	 4.6044 	 2.3100
  0.3500 	 1.5300 	 10.1954 	 8.2301 	 1.3906 	 62.4850 	 1.7197 	 58.0679 	 17.8182 	 4.4171 	 2.3100
  0.3500 	 1.5350 	 10.1981 	 8.2290 	 1.3874 	 62.3651 	 1.7185 	 58.1454 	 16.9588 	 4.2197 	 2.3100
  0.3500 	 1.5400 	 10.2007 	 8.2279 	 1.3843 	 62.2334 	 1.7172 	 58.2225 	 16.0601 	 4.0109 	 2.3100
  0.3500 	 1.5450 	 10.2032 	 8.2269 	 1.3812 	 62.0879 	 1.7160 	 58.2992 	 15.1147 	 3.7887 	 2.3100
  0.3500 	 1.5500 	 10.2058 	 8.2259 	 1.3781 	 61.9262 	 1.7149 	 58.3755 	 14.1135 	 3.5507 	 2.3100
  0.3500 	 1.5550 	 10.2084 	 8.2248 	 1.3750 	 61.7448 	 1.7137 	 58.4514 	 13.0432 	 3.2934 	 2.3100
  0.3500 	 1.5600 	 10.2109 	 8.2238 	 1.3719 	 61.5388 	 1.7125 	 58.5270 	 11.8854 	 3.0119 	 2.3100
  0.3500 	 1.5650 	 10.2134 	 8.2228 	 1.3688 	 61.3008 	 1.7113 	 58.6021 	 10.6113 	 2.6987 	 2.3100
  0.3500 	 1.5700 	 10.2159 	 8.2218 	 1.3658 	 61.0180 	 1.7102 	 58.6769 	 9.1723 	 2.3411 	 2.3100
  0.3500 	 1.5750 	 10.2184 	 8.2208 	 1.3628 	 60.6657 	 1.7091 	 58.7513 	 7.4738 	 1.9144 	 2.3100
  0.3500 	 1.5800 	 10.2209 	 8.2198 	 1.3598 	 60.1801 	 1.7079 	 58.8253 	 5.2704 	 1.3548 	 2.3100
  0.3500 	 1.3850 	 10.1074 	 8.2838 	 1.4957 	 63.4419 	 1.7655 	 55.5733 	 35.8055 	 7.8687 	 2.3200
  0.3500 	 1.3900 	 10.1106 	 8.2825 	 1.4919 	 63.4520 	 1.7638 	 55.6636 	 35.2846 	 7.7884 	 2.3200
  0.3500 	 1.3950 	 10.1138 	 8.2812 	 1.4881 	 63.4596 	 1.7622 	 55.7534 	 34.7598 	 7.7062 	 2.3200
  0.3500 	 1.4000 	 10.1169 	 8.2799 	 1.4844 	 63.4649 	 1.7606 	 55.8427 	 34.2312 	 7.6221 	 2.3200
  0.3500 	 1.4050 	 10.1201 	 8.2786 	 1.4807 	 63.4676 	 1.7591 	 55.9316 	 33.6983 	 7.5360 	 2.3200
  0.3500 	 1.4100 	 10.1232 	 8.2773 	 1.4770 	 63.4678 	 1.7575 	 56.0200 	 33.1610 	 7.4478 	 2.3200
  0.3500 	 1.4150 	 10.1263 	 8.2760 	 1.4733 	 63.4653 	 1.7560 	 56.1079 	 32.6190 	 7.3574 	 2.3200
  0.3500 	 1.4200 	 10.1294 	 8.2748 	 1.4696 	 63.4602 	 1.7544 	 56.1954 	 32.0720 	 7.2648 	 2.3200
  0.3500 	 1.4250 	 10.1324 	 8.2735 	 1.4660 	 63.4523 	 1.7529 	 56.2824 	 31.5197 	 7.1699 	 2.3200
  0.3500 	 1.4300 	 10.1354 	 8.2723 	 1.4624 	 63.4415 	 1.7514 	 56.3689 	 30.9618 	 7.0726 	 2.3200
  0.3500 	 1.4350 	 10.1385 	 8.2711 	 1.4588 	 63.4278 	 1.7499 	 56.4550 	 30.3980 	 6.9729 	 2.3200
  0.3500 	 1.4400 	 10.1414 	 8.2698 	 1.4553 	 63.4111 	 1.7485 	 56.5406 	 29.8278 	 6.8705 	 2.3200
  0.3500 	 1.4450 	 10.1444 	 8.2686 	 1.4517 	 63.3912 	 1.7470 	 56.6257 	 29.2508 	 6.7654 	 2.3200
  0.3500 	 1.4500 	 10.1474 	 8.2674 	 1.4482 	 63.3680 	 1.7456 	 56.7105 	 28.6666 	 6.6575 	 2.3200
  0.3500 	 1.4550 	 10.1503 	 8.2662 	 1.4447 	 63.3414 	 1.7441 	 56.7947 	 28.0746 	 6.5467 	 2.3200
  0.3500 	 1.4600 	 10.1532 	 8.2650 	 1.4413 	 63.3113 	 1.7427 	 56.8786 	 27.4744 	 6.4327 	 2.3200
  0.3500 	 1.4650 	 10.1561 	 8.2639 	 1.4378 	 63.2774 	 1.7413 	 56.9620 	 26.8653 	 6.3155 	 2.3200
  0.3500 	 1.4700 	 10.1590 	 8.2627 	 1.4344 	 63.2397 	 1.7399 	 57.0449 	 26.2467 	 6.1948 	 2.3200
  0.3500 	 1.4750 	 10.1618 	 8.2615 	 1.4310 	 63.1979 	 1.7385 	 57.1275 	 25.6178 	 6.0705 	 2.3200
  0.3500 	 1.4800 	 10.1647 	 8.2604 	 1.4276 	 63.1518 	 1.7372 	 57.2096 	 24.9778 	 5.9423 	 2.3200
  0.3500 	 1.4850 	 10.1675 	 8.2592 	 1.4242 	 63.1012 	 1.7358 	 57.2912 	 24.3257 	 5.8100 	 2.3200
  0.3500 	 1.4900 	 10.1703 	 8.2581 	 1.4209 	 63.0458 	 1.7345 	 57.3725 	 23.6606 	 5.6733 	 2.3200
  0.3500 	 1.4950 	 10.1730 	 8.2570 	 1.4175 	 62.9852 	 1.7332 	 57.4533 	 22.9812 	 5.5318 	 2.3200
  0.3500 	 1.5000 	 10.1758 	 8.2559 	 1.4142 	 62.9191 	 1.7319 	 57.5337 	 22.2861 	 5.3853 	 2.3200
  0.3500 	 1.5050 	 10.1785 	 8.2547 	 1.4110 	 62.8471 	 1.7306 	 57.6137 	 21.5739 	 5.2333 	 2.3200
  0.3500 	 1.5100 	 10.1812 	 8.2536 	 1.4077 	 62.7687 	 1.7293 	 57.6933 	 20.8427 	 5.0753 	 2.3200
  0.3500 	 1.5150 	 10.1840 	 8.2525 	 1.4044 	 62.6833 	 1.7280 	 57.7725 	 20.0904 	 4.9108 	 2.3200
  0.3500 	 1.5200 	 10.1866 	 8.2515 	 1.4012 	 62.5903 	 1.7267 	 57.8513 	 19.3143 	 4.7390 	 2.3200
  0.3500 	 1.5250 	 10.1893 	 8.2504 	 1.3980 	 62.4888 	 1.7255 	 57.9297 	 18.5116 	 4.5591 	 2.3200
  0.3500 	 1.5300 	 10.1920 	 8.2493 	 1.3948 	 62.3779 	 1.7242 	 58.0076 	 17.6785 	 4.3703 	 2.3200
  0.3500 	 1.5350 	 10.1946 	 8.2482 	 1.3916 	 62.2564 	 1.7230 	 58.0852 	 16.8104 	 4.1712 	 2.3200
  0.3500 	 1.5400 	 10.1972 	 8.2472 	 1.3885 	 62.1227 	 1.7218 	 58.1624 	 15.9016 	 3.9603 	 2.3200
  0.3500 	 1.5450 	 10.1998 	 8.2461 	 1.3853 	 61.9748 	 1.7206 	 58.2392 	 14.9444 	 3.7356 	 2.3200
  0.3500 	 1.5500 	 10.2024 	 8.2451 	 1.3822 	 61.8102 	 1.7194 	 58.3156 	 13.9290 	 3.4946 	 2.3200
  0.3500 	 1.5550 	 10.2049 	 8.2440 	 1.3791 	 61.6251 	 1.7182 	 58.3916 	 12.8414 	 3.2334 	 2.3200
  0.3500 	 1.5600 	 10.2075 	 8.2430 	 1.3760 	 61.4142 	 1.7170 	 58.4672 	 11.6613 	 2.9469 	 2.3200
  0.3500 	 1.5650 	 10.2100 	 8.2420 	 1.3730 	 61.1693 	 1.7158 	 58.5425 	 10.3571 	 2.6268 	 2.3200
  0.3500 	 1.5700 	 10.2125 	 8.2410 	 1.3699 	 60.8761 	 1.7147 	 58.6174 	 8.8741 	 2.2588 	 2.3200
  0.3500 	 1.5750 	 10.2150 	 8.2400 	 1.3669 	 60.5058 	 1.7135 	 58.6919 	 7.1010 	 1.8139 	 2.3200
  0.3500 	 1.3850 	 10.1035 	 8.3033 	 1.5002 	 63.3464 	 1.7702 	 55.5104 	 35.7604 	 7.8361 	 2.3300
  0.3500 	 1.3900 	 10.1067 	 8.3019 	 1.4964 	 63.3564 	 1.7686 	 55.6008 	 35.2378 	 7.7557 	 2.3300
  0.3500 	 1.3950 	 10.1099 	 8.3006 	 1.4926 	 63.3641 	 1.7670 	 55.6907 	 34.7114 	 7.6734 	 2.3300
  0.3500 	 1.4000 	 10.1131 	 8.2993 	 1.4889 	 63.3693 	 1.7654 	 55.7801 	 34.1811 	 7.5891 	 2.3300
  0.3500 	 1.4050 	 10.1163 	 8.2980 	 1.4851 	 63.3719 	 1.7638 	 55.8691 	 33.6465 	 7.5028 	 2.3300
  0.3500 	 1.4100 	 10.1194 	 8.2967 	 1.4814 	 63.3720 	 1.7622 	 55.9576 	 33.1074 	 7.4145 	 2.3300
  0.3500 	 1.4150 	 10.1225 	 8.2954 	 1.4778 	 63.3695 	 1.7607 	 56.0456 	 32.5635 	 7.3239 	 2.3300
  0.3500 	 1.4200 	 10.1256 	 8.2942 	 1.4741 	 63.3643 	 1.7591 	 56.1331 	 32.0146 	 7.2311 	 2.3300
  0.3500 	 1.4250 	 10.1287 	 8.2929 	 1.4705 	 63.3563 	 1.7576 	 56.2202 	 31.4604 	 7.1360 	 2.3300
  0.3500 	 1.4300 	 10.1317 	 8.2917 	 1.4668 	 63.3454 	 1.7561 	 56.3069 	 30.9004 	 7.0385 	 2.3300
  0.3500 	 1.4350 	 10.1347 	 8.2904 	 1.4632 	 63.3315 	 1.7546 	 56.3930 	 30.3344 	 6.9385 	 2.3300
  0.3500 	 1.4400 	 10.1377 	 8.2892 	 1.4597 	 63.3146 	 1.7531 	 56.4787 	 29.7620 	 6.8359 	 2.3300
  0.3500 	 1.4450 	 10.1407 	 8.2880 	 1.4561 	 63.2945 	 1.7517 	 56.5640 	 29.1827 	 6.7305 	 2.3300
  0.3500 	 1.4500 	 10.1437 	 8.2868 	 1.4526 	 63.2712 	 1.7502 	 56.6488 	 28.5960 	 6.6223 	 2.3300
  0.3500 	 1.4550 	 10.1466 	 8.2856 	 1.4491 	 63.2444 	 1.7488 	 56.7332 	 28.0015 	 6.5112 	 2.3300
  0.3500 	 1.4600 	 10.1496 	 8.2844 	 1.4456 	 63.2140 	 1.7474 	 56.8171 	 27.3986 	 6.3969 	 2.3300
  0.3500 	 1.4650 	 10.1525 	 8.2832 	 1.4422 	 63.1799 	 1.7459 	 56.9006 	 26.7867 	 6.2793 	 2.3300
  0.3500 	 1.4700 	 10.1553 	 8.2820 	 1.4387 	 63.1418 	 1.7445 	 56.9837 	 26.1651 	 6.1582 	 2.3300
  0.3500 	 1.4750 	 10.1582 	 8.2808 	 1.4353 	 63.0997 	 1.7432 	 57.0663 	 25.5331 	 6.0334 	 2.3300
  0.3500 	 1.4800 	 10.1611 	 8.2797 	 1.4319 	 63.0532 	 1.7418 	 57.1485 	 24.8897 	 5.9047 	 2.3300
  0.3500 	 1.4850 	 10.1639 	 8.2785 	 1.4285 	 63.0021 	 1.7404 	 57.2303 	 24.2341 	 5.7719 	 2.3300
  0.3500 	 1.4900 	 10.1667 	 8.2774 	 1.4252 	 62.9462 	 1.7391 	 57.3116 	 23.5652 	 5.6346 	 2.3300
  0.3500 	 1.4950 	 10.1695 	 8.2762 	 1.4218 	 62.8851 	 1.7378 	 57.3926 	 22.8817 	 5.4925 	 2.3300
  0.3500 	 1.5000 	 10.1722 	 8.2751 	 1.4185 	 62.8183 	 1.7364 	 57.4731 	 22.1823 	 5.3453 	 2.3300
  0.3500 	 1.5050 	 10.1750 	 8.2740 	 1.4152 	 62.7456 	 1.7351 	 57.5532 	 21.4653 	 5.1925 	 2.3300
  0.3500 	 1.5100 	 10.1777 	 8.2729 	 1.4119 	 62.6664 	 1.7338 	 57.6328 	 20.7289 	 5.0336 	 2.3300
  0.3500 	 1.5150 	 10.1804 	 8.2718 	 1.4087 	 62.5801 	 1.7325 	 57.7121 	 19.9709 	 4.8680 	 2.3300
  0.3500 	 1.5200 	 10.1831 	 8.2707 	 1.4054 	 62.4861 	 1.7313 	 57.7910 	 19.1886 	 4.6951 	 2.3300
  0.3500 	 1.5250 	 10.1858 	 8.2696 	 1.4022 	 62.3834 	 1.7300 	 57.8695 	 18.3789 	 4.5139 	 2.3300
  0.3500 	 1.5300 	 10.1885 	 8.2685 	 1.3990 	 62.2711 	 1.7288 	 57.9475 	 17.5380 	 4.3235 	 2.3300
  0.3500 	 1.5350 	 10.1911 	 8.2674 	 1.3958 	 62.1478 	 1.7275 	 58.0252 	 16.6609 	 4.1226 	 2.3300
  0.3500 	 1.5400 	 10.1937 	 8.2664 	 1.3927 	 62.0121 	 1.7263 	 58.1025 	 15.7418 	 3.9097 	 2.3300
  0.3500 	 1.5450 	 10.1963 	 8.2653 	 1.3895 	 61.8618 	 1.7251 	 58.1794 	 14.7725 	 3.6825 	 2.3300
  0.3500 	 1.5500 	 10.1989 	 8.2642 	 1.3864 	 61.6941 	 1.7239 	 58.2559 	 13.7424 	 3.4383 	 2.3300
  0.3500 	 1.5550 	 10.2015 	 8.2632 	 1.3833 	 61.5051 	 1.7227 	 58.3320 	 12.6367 	 3.1732 	 2.3300
  0.3500 	 1.5600 	 10.2041 	 8.2622 	 1.3802 	 61.2891 	 1.7215 	 58.4077 	 11.4332 	 2.8814 	 2.3300
  0.3500 	 1.5650 	 10.2066 	 8.2611 	 1.3771 	 61.0369 	 1.7203 	 58.4830 	 10.0970 	 2.5538 	 2.3300
  0.3500 	 1.5700 	 10.2091 	 8.2601 	 1.3740 	 60.7324 	 1.7191 	 58.5580 	 8.5661 	 2.1744 	 2.3300
  0.3500 	 1.5750 	 10.2117 	 8.2591 	 1.3710 	 60.3415 	 1.7180 	 58.6326 	 6.7083 	 1.7089 	 2.3300
  0.3500 	 1.3850 	 10.0997 	 8.3227 	 1.5048 	 63.2513 	 1.7750 	 55.4477 	 35.7152 	 7.8037 	 2.3400
  0.3500 	 1.3900 	 10.1029 	 8.3213 	 1.5009 	 63.2613 	 1.7734 	 55.5382 	 35.1910 	 7.7232 	 2.3400
  0.3500 	 1.3950 	 10.1061 	 8.3200 	 1.4971 	 63.2689 	 1.7717 	 55.6282 	 34.6630 	 7.6407 	 2.3400
  0.3500 	 1.4000 	 10.1093 	 8.3187 	 1.4934 	 63.2740 	 1.7701 	 55.7177 	 34.1310 	 7.5563 	 2.3400
  0.3500 	 1.4050 	 10.1125 	 8.3174 	 1.4896 	 63.2767 	 1.7685 	 55.8068 	 33.5947 	 7.4699 	 2.3400
  0.3500 	 1.4100 	 10.1156 	 8.3161 	 1.4859 	 63.2767 	 1.7670 	 55.8954 	 33.0538 	 7.3813 	 2.3400
  0.3500 	 1.4150 	 10.1187 	 8.3148 	 1.4822 	 63.2741 	 1.7654 	 55.9835 	 32.5081 	 7.2906 	 2.3400
  0.3500 	 1.4200 	 10.1218 	 8.3135 	 1.4785 	 63.2688 	 1.7638 	 56.0711 	 31.9573 	 7.1977 	 2.3400
  0.3500 	 1.4250 	 10.1249 	 8.3123 	 1.4749 	 63.2606 	 1.7623 	 56.1583 	 31.4010 	 7.1024 	 2.3400
  0.3500 	 1.4300 	 10.1280 	 8.3110 	 1.4713 	 63.2496 	 1.7608 	 56.2450 	 30.8390 	 7.0046 	 2.3400
  0.3500 	 1.4350 	 10.1310 	 8.3098 	 1.4677 	 63.2356 	 1.7593 	 56.3313 	 30.2708 	 6.9044 	 2.3400
  0.3500 	 1.4400 	 10.1340 	 8.3085 	 1.4641 	 63.2186 	 1.7578 	 56.4171 	 29.6962 	 6.8015 	 2.3400
  0.3500 	 1.4450 	 10.1370 	 8.3073 	 1.4605 	 63.1983 	 1.7563 	 56.5025 	 29.1145 	 6.6959 	 2.3400
  0.3500 	 1.4500 	 10.1400 	 8.3061 	 1.4570 	 63.1747 	 1.7549 	 56.5874 	 28.5254 	 6.5874 	 2.3400
  0.3500 	 1.4550 	 10.1430 	 8.3049 	 1.4535 	 63.1477 	 1.7534 	 56.6718 	 27.9283 	 6.4759 	 2.3400
  0.3500 	 1.4600 	 10.1459 	 8.3036 	 1.4500 	 63.1171 	 1.7520 	 56.7559 	 27.3228 	 6.3612 	 2.3400
  0.3500 	 1.4650 	 10.1488 	 8.3025 	 1.4465 	 63.0827 	 1.7506 	 56.8394 	 26.7080 	 6.2432 	 2.3400
  0.3500 	 1.4700 	 10.1517 	 8.3013 	 1.4430 	 63.0443 	 1.7492 	 56.9226 	 26.0834 	 6.1217 	 2.3400
  0.3500 	 1.4750 	 10.1546 	 8.3001 	 1.4396 	 63.0018 	 1.7478 	 57.0053 	 25.4482 	 5.9965 	 2.3400
  0.3500 	 1.4800 	 10.1575 	 8.2989 	 1.4362 	 62.9550 	 1.7464 	 57.0876 	 24.8015 	 5.8674 	 2.3400
  0.3500 	 1.4850 	 10.1603 	 8.2978 	 1.4328 	 62.9035 	 1.7450 	 57.1695 	 24.1423 	 5.7340 	 2.3400
  0.3500 	 1.4900 	 10.1631 	 8.2966 	 1.4294 	 62.8470 	 1.7437 	 57.2509 	 23.4695 	 5.5961 	 2.3400
  0.3500 	 1.4950 	 10.1659 	 8.2955 	 1.4261 	 62.7853 	 1.7423 	 57.3320 	 22.7820 	 5.4533 	 2.3400
  0.3500 	 1.5000 	 10.1687 	 8.2943 	 1.4228 	 62.7180 	 1.7410 	 57.4126 	 22.0781 	 5.3054 	 2.3400
  0.3500 	 1.5050 	 10.1714 	 8.2932 	 1.4195 	 62.6445 	 1.7397 	 57.4928 	 21.3564 	 5.1518 	 2.3400
