# d(e,e'p)n Central Kinematics Summary
# Beam Energy (Ei) = 10.549 GeV
# 4-Momentum Transfer (Q2) = 2.10 - 4.50 GeV (step: 0.10) 
# x-Bjorken (xbj) = 1.00 - 2.10 (step: 0.10) 
# Missing Momentum (Pr) = 0.00 - 0.80 GeV (step: 0.10) 
# Hadron Out-of-Plane Angle (phi) = 180 deg 
# thp = thq + thpq, phi = 180 ?  (q-vector scatters at smaller  angles than proton scattering angle)# 
# # 
# Tensor Polarized Deuterium: d(e,e'p) kinematics :
# 
# Header Definitions: 
# Pr   : Central Missing Momentum [GeV/c] 
# xbj  : Bjorken x  
# kf   : e- final momentum [GeV/c] 
# th_e : e- scattering angle [deg] 
# Pf   : final proton momentum [GeV/c] 
# th_p : proton scattering angle [deg] 
# q    : 3-momentum transfer [GeV] 
# th_q : relative angle between q-vector and +z (lab)  [deg] 
# th_nq: relative angle between q-vector and recoil neutron [deg] 
# th_pq: relative angle between q-vector and knocked-out proton [deg] 
# Q2   : 4-Momentum Transfer [GeV^2]  
# 
#! Pr[f,0]/ 	  xbj[f,1]/ 	 kf[f,2]/ 	 th_e[f,3]/ 	 Pf[f,4]/ 	 th_p[f,5]/ 	 q[f,6]/ 	 th_q[f,7]/ 	 th_nq[f,8]/ 	 th_pq[f,9]/ 	 Q2[f,10]/
  0.1000 	 1.0000 	 9.4299 	 8.3321 	 1.8225 	 45.1484 	 1.8309 	 48.2741 	 83.5819 	 3.1257 	 2.1000
  0.1000 	 1.1000 	 9.5317 	 8.2875 	 1.7072 	 48.3411 	 1.7706 	 50.8912 	 49.4299 	 2.5501 	 2.1000
  0.1000 	 1.0000 	 9.3766 	 8.5528 	 1.8822 	 44.4995 	 1.8906 	 47.5264 	 83.6629 	 3.0269 	 2.2000
  0.1000 	 1.1000 	 9.4832 	 8.5045 	 1.7623 	 47.7110 	 1.8264 	 50.1617 	 48.9002 	 2.4507 	 2.2000
  0.1000 	 1.0000 	 9.3233 	 8.7704 	 1.9416 	 43.8713 	 1.9499 	 46.8060 	 83.7378 	 2.9347 	 2.3000
  0.1000 	 1.1000 	 9.4348 	 8.7184 	 1.8170 	 47.0994 	 1.8819 	 49.4576 	 48.3869 	 2.3582 	 2.3000
  0.1000 	 1.0000 	 9.2701 	 8.9852 	 2.0006 	 43.2626 	 2.0089 	 46.1110 	 83.8072 	 2.8484 	 2.4000
  0.1000 	 1.1000 	 9.3863 	 8.9292 	 1.8714 	 46.5054 	 1.9370 	 48.7773 	 47.8892 	 2.2719 	 2.4000
  0.1000 	 1.0000 	 9.2168 	 9.1974 	 2.0593 	 42.6722 	 2.0676 	 45.4397 	 83.8717 	 2.7675 	 2.5000
  0.1000 	 1.1000 	 9.3379 	 9.1374 	 1.9254 	 45.9279 	 1.9917 	 48.1191 	 47.4063 	 2.1912 	 2.5000
  0.1000 	 1.0000 	 9.1635 	 9.4072 	 2.1177 	 42.0992 	 2.1260 	 44.7906 	 83.9319 	 2.6914 	 2.6000
  0.1000 	 1.1000 	 9.2894 	 9.3431 	 1.9792 	 45.3662 	 2.0461 	 47.4818 	 46.9375 	 2.1156 	 2.6000
  0.1000 	 1.0000 	 9.1102 	 9.6149 	 2.1759 	 41.5426 	 2.1841 	 44.1623 	 83.9881 	 2.6197 	 2.7000
  0.1000 	 1.1000 	 9.2410 	 9.5465 	 2.0326 	 44.8194 	 2.1002 	 46.8639 	 46.4820 	 2.0445 	 2.7000
  0.1000 	 1.0000 	 9.0569 	 9.8206 	 2.2338 	 41.0015 	 2.2420 	 43.5534 	 84.0407 	 2.5519 	 2.8000
  0.1000 	 1.1000 	 9.1925 	 9.7477 	 2.0859 	 44.2867 	 2.1541 	 46.2643 	 46.0393 	 1.9776 	 2.8000
  0.1000 	 1.0000 	 9.0036 	 10.0245 	 2.2915 	 40.4751 	 2.2996 	 42.9630 	 84.0901 	 2.4879 	 2.9000
  0.1000 	 1.1000 	 9.1441 	 9.9470 	 2.1389 	 43.7675 	 2.2077 	 45.6820 	 45.6087 	 1.9145 	 2.9000
  0.1000 	 1.0000 	 8.9503 	 10.2267 	 2.3490 	 39.9626 	 2.3571 	 42.3897 	 84.1366 	 2.4272 	 3.0000
  0.1000 	 1.1000 	 9.0957 	 10.1444 	 2.1917 	 43.2611 	 2.2610 	 45.1161 	 45.1898 	 1.8550 	 3.0000
  0.1000 	 1.0000 	 8.8970 	 10.4274 	 2.4063 	 39.4633 	 2.4143 	 41.8328 	 84.1804 	 2.3695 	 3.1000
  0.1000 	 1.1000 	 9.0472 	 10.3402 	 2.2443 	 42.7669 	 2.3142 	 44.5655 	 44.7819 	 1.7986 	 3.1000
  0.1000 	 1.0000 	 8.8437 	 10.6267 	 2.4634 	 38.9766 	 2.4714 	 41.2914 	 84.2218 	 2.3147 	 3.2000
  0.1000 	 1.1000 	 8.9988 	 10.5345 	 2.2967 	 42.2844 	 2.3671 	 44.0296 	 44.3845 	 1.7452 	 3.2000
  0.1000 	 1.0000 	 8.7904 	 10.8247 	 2.5203 	 38.5019 	 2.5283 	 40.7645 	 84.2609 	 2.2626 	 3.3000
  0.1000 	 1.1000 	 8.9503 	 10.7273 	 2.3490 	 41.8129 	 2.4199 	 43.5075 	 43.9973 	 1.6946 	 3.3000
  0.1000 	 1.0000 	 8.7372 	 11.0215 	 2.5771 	 38.0386 	 2.5851 	 40.2514 	 84.2979 	 2.2128 	 3.4000
  0.1000 	 1.1000 	 8.9019 	 10.9188 	 2.4011 	 41.3521 	 2.4725 	 42.9986 	 43.6198 	 1.6464 	 3.4000
  0.1000 	 1.0000 	 8.6839 	 11.2173 	 2.6337 	 37.5862 	 2.6417 	 39.7515 	 84.3331 	 2.1653 	 3.5000
  0.1000 	 1.1000 	 8.8534 	 11.1090 	 2.4530 	 40.9015 	 2.5249 	 42.5021 	 43.2515 	 1.6007 	 3.5000
  0.1000 	 1.0000 	 8.6306 	 11.4121 	 2.6902 	 37.1442 	 2.6982 	 39.2641 	 84.3664 	 2.1200 	 3.6000
  0.1000 	 1.1000 	 8.8050 	 11.2982 	 2.5048 	 40.4605 	 2.5771 	 42.0176 	 42.8921 	 1.5571 	 3.6000
  0.1000 	 1.0000 	 8.5773 	 11.6061 	 2.7466 	 36.7121 	 2.7546 	 38.7886 	 84.3982 	 2.0765 	 3.7000
  0.1000 	 1.1000 	 8.7565 	 11.4863 	 2.5565 	 40.0289 	 2.6292 	 41.5444 	 42.5412 	 1.5155 	 3.7000
  0.1000 	 1.0000 	 8.5240 	 11.7993 	 2.8029 	 36.2894 	 2.8108 	 38.3244 	 84.4284 	 2.0350 	 3.8000
  0.1000 	 1.1000 	 8.7081 	 11.6734 	 2.6080 	 39.6063 	 2.6812 	 41.0821 	 42.1985 	 1.4758 	 3.8000
  0.1000 	 1.0000 	 8.4707 	 11.9917 	 2.8590 	 35.8759 	 2.8669 	 37.8710 	 84.4572 	 1.9951 	 3.9000
  0.1000 	 1.1000 	 8.6596 	 11.8597 	 2.6594 	 39.1922 	 2.7331 	 40.6301 	 41.8637 	 1.4379 	 3.9000
  0.1000 	 1.0000 	 8.4174 	 12.1836 	 2.9150 	 35.4710 	 2.9229 	 37.4278 	 84.4848 	 1.9568 	 4.0000
  0.1000 	 1.1000 	 8.6112 	 12.0452 	 2.7107 	 38.7863 	 2.7848 	 40.1880 	 41.5364 	 1.4017 	 4.0000
  0.1000 	 1.0000 	 8.3641 	 12.3749 	 2.9710 	 35.0745 	 2.9789 	 36.9946 	 84.5111 	 1.9200 	 4.1000
  0.1000 	 1.1000 	 8.5628 	 12.2300 	 2.7620 	 38.3883 	 2.8364 	 39.7553 	 41.2163 	 1.3670 	 4.1000
  0.1000 	 1.0000 	 8.3108 	 12.5658 	 3.0268 	 34.6860 	 3.0347 	 36.5707 	 84.5362 	 1.8847 	 4.2000
  0.1000 	 1.1000 	 8.5143 	 12.4141 	 2.8131 	 37.9979 	 2.8879 	 39.3317 	 40.9033 	 1.3338 	 4.2000
  0.1000 	 1.0000 	 8.2576 	 12.7562 	 3.0826 	 34.3052 	 3.0904 	 36.1558 	 84.5603 	 1.8507 	 4.3000
  0.1000 	 1.1000 	 8.4659 	 12.5977 	 2.8641 	 37.6149 	 2.9393 	 38.9168 	 40.5969 	 1.3019 	 4.3000
  0.1000 	 1.0000 	 8.2043 	 12.9464 	 3.1382 	 33.9317 	 3.1461 	 35.7496 	 84.5834 	 1.8179 	 4.4000
  0.1000 	 1.1000 	 8.4174 	 12.7807 	 2.9150 	 37.2389 	 2.9906 	 38.5102 	 40.2971 	 1.2713 	 4.4000
  0.1000 	 1.0000 	 8.1510 	 13.1362 	 3.1938 	 33.5653 	 3.2016 	 35.3516 	 84.6055 	 1.7863 	 4.5000
  0.1000 	 1.1000 	 8.3690 	 12.9632 	 2.9659 	 36.8696 	 3.0418 	 38.1116 	 40.0035 	 1.2419 	 4.5000
  0.2000 	 1.0000 	 9.4299 	 8.3321 	 1.8047 	 42.0214 	 1.8309 	 48.2741 	 79.3595 	 6.2527 	 2.1000
  0.2000 	 1.1000 	 9.5317 	 8.2875 	 1.6893 	 44.8351 	 1.7706 	 50.8912 	 63.0117 	 6.0561 	 2.1000
  0.2000 	 1.2000 	 9.6164 	 8.2508 	 1.5916 	 47.9983 	 1.7233 	 53.2075 	 46.2637 	 5.2093 	 2.1000
  0.2000 	 1.3000 	 9.6882 	 8.2201 	 1.5077 	 51.9753 	 1.6855 	 55.2659 	 25.6401 	 3.2906 	 2.1000
  0.2000 	 1.0000 	 9.3766 	 8.5528 	 1.8646 	 41.4722 	 1.8906 	 47.5264 	 79.5080 	 6.0541 	 2.2000
  0.2000 	 1.1000 	 9.4832 	 8.5045 	 1.7445 	 44.3035 	 1.8264 	 50.1617 	 62.9054 	 5.8582 	 2.2000
  0.2000 	 1.2000 	 9.5720 	 8.4649 	 1.6429 	 47.4917 	 1.7761 	 52.4985 	 45.8009 	 5.0068 	 2.2000
  0.2000 	 1.3000 	 9.6472 	 8.4318 	 1.5558 	 51.5454 	 1.7359 	 54.5784 	 24.3052 	 3.0330 	 2.2000
  0.2000 	 1.0000 	 9.3233 	 8.7704 	 1.9241 	 40.9370 	 1.9499 	 46.8060 	 79.6454 	 5.8690 	 2.3000
  0.2000 	 1.1000 	 9.4348 	 8.7184 	 1.7993 	 43.7840 	 1.8819 	 49.4576 	 62.7989 	 5.6737 	 2.3000
  0.2000 	 1.2000 	 9.5276 	 8.6757 	 1.6939 	 46.9950 	 1.8284 	 51.8132 	 45.3476 	 4.8182 	 2.3000
  0.2000 	 1.3000 	 9.6062 	 8.6401 	 1.6035 	 51.1261 	 1.7857 	 53.9130 	 22.9428 	 2.7869 	 2.3000
  0.2000 	 1.0000 	 9.2701 	 8.9852 	 1.9832 	 40.4153 	 2.0089 	 46.1110 	 79.7729 	 5.6957 	 2.4000
  0.2000 	 1.1000 	 9.3863 	 8.9292 	 1.8537 	 43.2761 	 1.9370 	 48.7773 	 62.6927 	 5.5012 	 2.4000
  0.2000 	 1.2000 	 9.4832 	 8.8834 	 1.7445 	 46.5079 	 1.8804 	 51.1500 	 44.9038 	 4.6422 	 2.4000
  0.2000 	 1.3000 	 9.5652 	 8.8452 	 1.6508 	 50.7183 	 1.8352 	 53.2684 	 21.5452 	 2.5501 	 2.4000
  0.2000 	 1.0000 	 9.2168 	 9.1974 	 2.0420 	 39.9065 	 2.0676 	 45.4397 	 79.8916 	 5.5333 	 2.5000
  0.2000 	 1.1000 	 9.3379 	 9.1374 	 1.9079 	 42.7796 	 1.9917 	 48.1191 	 62.5872 	 5.3395 	 2.5000
  0.2000 	 1.2000 	 9.4388 	 9.0883 	 1.7947 	 46.0302 	 1.9320 	 50.5076 	 44.4693 	 4.4773 	 2.5000
  0.2000 	 1.3000 	 9.5242 	 9.0474 	 1.6978 	 50.3226 	 1.8842 	 52.6431 	 20.1026 	 2.3205 	 2.5000
  0.2000 	 1.0000 	 9.1635 	 9.4072 	 2.1005 	 39.4101 	 2.1260 	 44.7906 	 80.0023 	 5.3805 	 2.6000
  0.2000 	 1.1000 	 9.2894 	 9.3431 	 1.9617 	 42.2942 	 2.0461 	 47.4818 	 62.4825 	 5.1876 	 2.6000
  0.2000 	 1.2000 	 9.3944 	 9.2906 	 1.8447 	 45.5619 	 1.9832 	 49.8846 	 44.0439 	 4.3227 	 2.6000
  0.2000 	 1.3000 	 9.4832 	 9.2469 	 1.7445 	 49.9401 	 1.9328 	 52.0360 	 18.6018 	 2.0959 	 2.6000
  0.2000 	 1.0000 	 9.1102 	 9.6149 	 2.1587 	 38.9256 	 2.1841 	 44.1623 	 80.1058 	 5.2366 	 2.7000
  0.2000 	 1.1000 	 9.2410 	 9.5465 	 2.0153 	 41.8193 	 2.1002 	 46.8639 	 62.3791 	 5.0446 	 2.7000
  0.2000 	 1.2000 	 9.3500 	 9.4905 	 1.8944 	 45.1025 	 2.0341 	 49.2798 	 43.6274 	 4.1773 	 2.7000
  0.2000 	 1.3000 	 9.4422 	 9.4439 	 1.7909 	 49.5723 	 1.9812 	 51.4461 	 17.0245 	 1.8737 	 2.7000
  0.2000 	 1.0000 	 9.0569 	 9.8206 	 2.2167 	 38.4526 	 2.2420 	 43.5534 	 80.2030 	 5.1008 	 2.8000
  0.2000 	 1.1000 	 9.1925 	 9.7477 	 2.0686 	 41.3547 	 2.1541 	 46.2643 	 62.2769 	 4.9096 	 2.8000
  0.2000 	 1.2000 	 9.3056 	 9.6882 	 1.9438 	 44.6520 	 2.0847 	 48.6923 	 43.2196 	 4.0404 	 2.8000
  0.2000 	 1.3000 	 9.4012 	 9.6386 	 1.8370 	 49.2214 	 2.0291 	 50.8723 	 15.3444 	 1.6509 	 2.8000
  0.2000 	 1.0000 	 9.0036 	 10.0245 	 2.2745 	 37.9906 	 2.2996 	 42.9630 	 80.2942 	 4.9723 	 2.9000
  0.2000 	 1.1000 	 9.1441 	 9.9470 	 2.1217 	 40.9000 	 2.2077 	 45.6820 	 62.1763 	 4.7821 	 2.9000
  0.2000 	 1.2000 	 9.2612 	 9.8837 	 1.9930 	 44.2099 	 2.1351 	 48.1210 	 42.8202 	 3.9111 	 2.9000
  0.2000 	 1.3000 	 9.3602 	 9.8312 	 1.8829 	 48.8909 	 2.0768 	 50.3138 	 13.5200 	 1.4229 	 2.9000
  0.2000 	 1.0000 	 8.9503 	 10.2267 	 2.3320 	 37.5392 	 2.3571 	 42.3897 	 80.3801 	 4.8506 	 3.0000
  0.2000 	 1.1000 	 9.0957 	 10.1444 	 2.1746 	 40.4548 	 2.2610 	 45.1161 	 62.0772 	 4.6613 	 3.0000
  0.2000 	 1.2000 	 9.2168 	 10.0774 	 2.0420 	 43.7762 	 2.1851 	 47.5651 	 42.4291 	 3.7889 	 3.0000
  0.2000 	 1.3000 	 9.3192 	 10.0217 	 1.9286 	 48.5872 	 2.1242 	 49.7697 	 11.4793 	 1.1826 	 3.0000
  0.2000 	 1.0000 	 8.8970 	 10.4274 	 2.3893 	 37.0978 	 2.4143 	 41.8328 	 80.4612 	 4.7350 	 3.1000
  0.2000 	 1.1000 	 9.0472 	 10.3402 	 2.2272 	 40.0188 	 2.3142 	 44.5655 	 61.9797 	 4.5467 	 3.1000
  0.2000 	 1.2000 	 9.1724 	 10.2693 	 2.0908 	 43.3505 	 2.2350 	 47.0237 	 42.0459 	 3.6732 	 3.1000
  0.2000 	 1.3000 	 9.2783 	 10.2103 	 1.9741 	 48.3239 	 2.1714 	 49.2393 	 9.0735 	 0.9154 	 3.1000
  0.2000 	 1.0000 	 8.8437 	 10.6267 	 2.4465 	 36.6662 	 2.4714 	 41.2914 	 80.5378 	 4.6252 	 3.2000
  0.2000 	 1.1000 	 8.9988 	 10.5345 	 2.2797 	 39.5917 	 2.3671 	 44.0296 	 61.8839 	 4.4379 	 3.2000
  0.2000 	 1.2000 	 9.1279 	 10.4594 	 2.1393 	 42.9327 	 2.2846 	 46.4961 	 41.6704 	 3.5635 	 3.2000
  0.2000 	 1.3000 	 9.2373 	 10.3972 	 2.0194 	 48.1423 	 2.2183 	 48.7220 	 5.8633 	 0.5797 	 3.2000
  0.2000 	 1.0000 	 8.7904 	 10.8247 	 2.5035 	 36.2439 	 2.5283 	 40.7645 	 80.6103 	 4.5206 	 3.3000
  0.2000 	 1.1000 	 8.9503 	 10.7273 	 2.3320 	 39.1732 	 2.4199 	 43.5075 	 61.7898 	 4.3343 	 3.3000
  0.2000 	 1.2000 	 9.0835 	 10.6481 	 2.1877 	 42.5224 	 2.3340 	 45.9816 	 41.3024 	 3.4593 	 3.3000
  0.2000 	 1.0000 	 8.7372 	 11.0215 	 2.5603 	 35.8305 	 2.5851 	 40.2514 	 80.6790 	 4.4209 	 3.4000
  0.2000 	 1.1000 	 8.9019 	 10.9188 	 2.3841 	 38.7629 	 2.4725 	 42.9986 	 61.6975 	 4.2357 	 3.4000
  0.2000 	 1.2000 	 9.0391 	 10.8353 	 2.2360 	 42.1194 	 2.3832 	 45.4796 	 40.9417 	 3.3602 	 3.4000
  0.2000 	 1.0000 	 8.6839 	 11.2173 	 2.6170 	 35.4257 	 2.6417 	 39.7515 	 80.7442 	 4.3258 	 3.5000
  0.2000 	 1.1000 	 8.8534 	 11.1090 	 2.4361 	 38.3605 	 2.5249 	 42.5021 	 61.6069 	 4.1416 	 3.5000
  0.2000 	 1.2000 	 8.9947 	 11.0211 	 2.2841 	 41.7235 	 2.4322 	 44.9894 	 40.5881 	 3.2659 	 3.5000
  0.2000 	 1.0000 	 8.6306 	 11.4121 	 2.6736 	 35.0292 	 2.6982 	 39.2641 	 80.8063 	 4.2349 	 3.6000
  0.2000 	 1.1000 	 8.8050 	 11.2982 	 2.4880 	 37.9659 	 2.5771 	 42.0176 	 61.5180 	 4.0517 	 3.6000
  0.2000 	 1.2000 	 8.9503 	 11.2058 	 2.3320 	 41.3345 	 2.4811 	 44.5105 	 40.2412 	 3.1760 	 3.6000
  0.2000 	 1.0000 	 8.5773 	 11.6061 	 2.7300 	 34.6407 	 2.7546 	 38.7886 	 80.8653 	 4.1479 	 3.7000
  0.2000 	 1.1000 	 8.7565 	 11.4863 	 2.5397 	 37.5786 	 2.6292 	 41.5444 	 61.4309 	 3.9658 	 3.7000
  0.2000 	 1.2000 	 8.9059 	 11.3892 	 2.3798 	 40.9522 	 2.5298 	 44.0425 	 39.9009 	 3.0902 	 3.7000
  0.2000 	 1.0000 	 8.5240 	 11.7993 	 2.7863 	 34.2598 	 2.8108 	 38.3244 	 80.9216 	 4.0646 	 3.8000
  0.2000 	 1.1000 	 8.7081 	 11.6734 	 2.5913 	 37.1985 	 2.6812 	 41.0821 	 61.3455 	 3.8836 	 3.8000
  0.2000 	 1.2000 	 8.8615 	 11.5716 	 2.4275 	 40.5763 	 2.5783 	 43.5847 	 39.5671 	 3.0083 	 3.8000
  0.2000 	 1.0000 	 8.4707 	 11.9917 	 2.8424 	 33.8862 	 2.8669 	 37.8710 	 80.9753 	 3.9848 	 3.9000
  0.2000 	 1.1000 	 8.6596 	 11.8597 	 2.6427 	 36.8253 	 2.7331 	 40.6301 	 61.2618 	 3.8048 	 3.9000
  0.2000 	 1.2000 	 8.8171 	 11.7530 	 2.4750 	 40.2068 	 2.6267 	 43.1367 	 39.2394 	 2.9300 	 3.9000
  0.2000 	 1.0000 	 8.4174 	 12.1836 	 2.8985 	 33.5197 	 2.9229 	 37.4278 	 81.0266 	 3.9081 	 4.0000
  0.2000 	 1.1000 	 8.6112 	 12.0452 	 2.6941 	 36.4587 	 2.7848 	 40.1880 	 61.1797 	 3.7292 	 4.0000
  0.2000 	 1.2000 	 8.7727 	 11.9334 	 2.5225 	 39.8432 	 2.6749 	 42.6983 	 38.9178 	 2.8550 	 4.0000
  0.2000 	 1.0000 	 8.3641 	 12.3749 	 2.9545 	 33.1601 	 2.9789 	 36.9946 	 81.0757 	 3.8345 	 4.1000
  0.2000 	 1.1000 	 8.5628 	 12.2300 	 2.7453 	 36.0986 	 2.8364 	 39.7553 	 61.0993 	 3.6567 	 4.1000
  0.2000 	 1.2000 	 8.7283 	 12.1131 	 2.5698 	 39.4856 	 2.7231 	 42.2688 	 38.6020 	 2.7832 	 4.1000
  0.2000 	 1.0000 	 8.3108 	 12.5658 	 3.0103 	 32.8070 	 3.0347 	 36.5707 	 81.1227 	 3.7637 	 4.2000
  0.2000 	 1.1000 	 8.5143 	 12.4141 	 2.7965 	 35.7447 	 2.8879 	 39.3317 	 61.0205 	 3.5870 	 4.2000
  0.2000 	 1.2000 	 8.6839 	 12.2919 	 2.6170 	 39.1337 	 2.7710 	 41.8480 	 38.2918 	 2.7144 	 4.2000
  0.2000 	 1.0000 	 8.2576 	 12.7562 	 3.0661 	 32.4602 	 3.0904 	 36.1558 	 81.1677 	 3.6956 	 4.3000
  0.2000 	 1.1000 	 8.4659 	 12.5977 	 2.8475 	 35.3968 	 2.9393 	 38.9168 	 60.9432 	 3.5200 	 4.3000
  0.2000 	 1.2000 	 8.6395 	 12.4700 	 2.6641 	 38.7873 	 2.8189 	 41.4356 	 37.9871 	 2.6483 	 4.3000
  0.2000 	 1.0000 	 8.2043 	 12.9464 	 3.1218 	 32.1195 	 3.1461 	 35.7496 	 81.2109 	 3.6300 	 4.4000
  0.2000 	 1.1000 	 8.4174 	 12.7807 	 2.8985 	 35.0547 	 2.9906 	 38.5102 	 60.8676 	 3.4555 	 4.4000
  0.2000 	 1.2000 	 8.5951 	 12.6474 	 2.7112 	 38.4462 	 2.8667 	 41.0311 	 37.6876 	 2.5849 	 4.4000
  0.2000 	 1.0000 	 8.1510 	 13.1362 	 3.1774 	 31.7847 	 3.2016 	 35.3516 	 81.2523 	 3.5668 	 4.5000
  0.2000 	 1.1000 	 8.3690 	 12.9632 	 2.9494 	 34.7183 	 3.0418 	 38.1116 	 60.7934 	 3.3933 	 4.5000
  0.2000 	 1.2000 	 8.5506 	 12.8242 	 2.7581 	 38.1104 	 2.9143 	 40.6343 	 37.3934 	 2.5239 	 4.5000
  0.3000 	 1.0000 	 9.4299 	 8.3321 	 1.7758 	 38.8936 	 1.8309 	 48.2741 	 74.7451 	 9.3805 	 2.1000
  0.3000 	 1.1000 	 9.5317 	 8.2875 	 1.6598 	 41.5628 	 1.7706 	 50.8912 	 63.7423 	 9.3284 	 2.1000
  0.3000 	 1.2000 	 9.6164 	 8.2508 	 1.5617 	 44.3706 	 1.7233 	 53.2075 	 53.1019 	 8.8369 	 2.1000
  0.3000 	 1.3000 	 9.6882 	 8.2201 	 1.4774 	 47.4158 	 1.6855 	 55.2659 	 42.2686 	 7.8501 	 2.1000
  0.3000 	 1.4000 	 9.7497 	 8.1941 	 1.4040 	 50.9223 	 1.6550 	 57.1026 	 30.2541 	 6.1803 	 2.1000
  0.3000 	 1.5000 	 9.8029 	 8.1718 	 1.3394 	 55.8403 	 1.6299 	 58.7485 	 13.0924 	 2.9082 	 2.1000
  0.3000 	 1.0000 	 9.3766 	 8.5528 	 1.8358 	 38.4459 	 1.8906 	 47.5264 	 74.9650 	 9.0805 	 2.2000
  0.3000 	 1.1000 	 9.4832 	 8.5045 	 1.7152 	 41.1328 	 1.8264 	 50.1617 	 63.8001 	 9.0289 	 2.2000
  0.3000 	 1.2000 	 9.5720 	 8.4649 	 1.6133 	 43.9615 	 1.7761 	 52.4985 	 52.9680 	 8.5370 	 2.2000
  0.3000 	 1.3000 	 9.6472 	 8.4318 	 1.5257 	 47.0358 	 1.7359 	 54.5784 	 41.8797 	 7.5426 	 2.2000
  0.3000 	 1.4000 	 9.7116 	 8.4037 	 1.4496 	 50.5990 	 1.7033 	 56.4369 	 29.4372 	 5.8379 	 2.2000
  0.3000 	 1.5000 	 9.7674 	 8.3796 	 1.3826 	 55.8543 	 1.6766 	 58.1043 	 10.4243 	 2.2500 	 2.2000
  0.3000 	 1.0000 	 9.3233 	 8.7704 	 1.8955 	 38.0051 	 1.9499 	 46.8060 	 75.1685 	 8.8008 	 2.3000
  0.3000 	 1.1000 	 9.4348 	 8.7184 	 1.7703 	 40.7080 	 1.8819 	 49.4576 	 63.8484 	 8.7497 	 2.3000
  0.3000 	 1.2000 	 9.5276 	 8.6757 	 1.6645 	 43.5555 	 1.8284 	 51.8132 	 52.8309 	 8.2577 	 2.3000
  0.3000 	 1.3000 	 9.6062 	 8.6401 	 1.5736 	 46.6569 	 1.7857 	 53.9130 	 41.4927 	 7.2561 	 2.3000
  0.3000 	 1.4000 	 9.6735 	 8.6099 	 1.4947 	 50.2757 	 1.7511 	 55.7919 	 28.6157 	 5.5162 	 2.3000
  0.3000 	 1.5000 	 9.7319 	 8.5840 	 1.4253 	 56.0324 	 1.7227 	 57.4795 	 6.8912 	 1.4471 	 2.3000
  0.3000 	 1.0000 	 9.2701 	 8.9852 	 1.9547 	 37.5716 	 2.0089 	 46.1110 	 75.3572 	 8.5393 	 2.4000
  0.3000 	 1.1000 	 9.3863 	 8.9292 	 1.8249 	 40.2887 	 1.9370 	 48.7773 	 63.8884 	 8.4886 	 2.4000
  0.3000 	 1.2000 	 9.4832 	 8.8834 	 1.7152 	 43.1534 	 1.8804 	 51.1500 	 52.6917 	 7.9966 	 2.4000
  0.3000 	 1.3000 	 9.5652 	 8.8452 	 1.6212 	 46.2800 	 1.8352 	 53.2684 	 41.1083 	 6.9884 	 2.4000
  0.3000 	 1.4000 	 9.6355 	 8.8128 	 1.5395 	 49.9535 	 1.7985 	 55.1663 	 27.7893 	 5.2128 	 2.4000
  0.3000 	 1.0000 	 9.2168 	 9.1974 	 2.0137 	 37.1455 	 2.0676 	 45.4397 	 75.5328 	 8.2942 	 2.5000
  0.3000 	 1.1000 	 9.3379 	 9.1374 	 1.8792 	 39.8752 	 1.9917 	 48.1191 	 63.9213 	 8.2439 	 2.5000
  0.3000 	 1.2000 	 9.4388 	 9.0883 	 1.7657 	 42.7555 	 1.9320 	 50.5076 	 52.5513 	 7.7521 	 2.5000
  0.3000 	 1.3000 	 9.5242 	 9.0474 	 1.6684 	 45.9055 	 1.8842 	 52.6431 	 40.7269 	 6.7376 	 2.5000
  0.3000 	 1.4000 	 9.5974 	 9.0128 	 1.5839 	 49.6330 	 1.8454 	 54.5588 	 26.9576 	 4.9258 	 2.5000
  0.3000 	 1.0000 	 9.1635 	 9.4072 	 2.0723 	 36.7267 	 2.1260 	 44.7906 	 75.6967 	 8.0639 	 2.6000
  0.3000 	 1.1000 	 9.2894 	 9.3431 	 1.9332 	 39.4678 	 2.0461 	 47.4818 	 63.9482 	 8.0140 	 2.6000
  0.3000 	 1.2000 	 9.3944 	 9.2906 	 1.8158 	 42.3621 	 1.9832 	 49.8846 	 52.4101 	 7.5225 	 2.6000
  0.3000 	 1.3000 	 9.4832 	 9.2469 	 1.7152 	 45.5339 	 1.9328 	 52.0360 	 40.3491 	 6.5021 	 2.6000
  0.3000 	 1.4000 	 9.5593 	 9.2100 	 1.6279 	 49.3149 	 1.8919 	 53.9685 	 26.1200 	 4.6535 	 2.6000
  0.3000 	 1.0000 	 9.1102 	 9.6149 	 2.1307 	 36.3153 	 2.1841 	 44.1623 	 75.8499 	 7.8470 	 2.7000
  0.3000 	 1.1000 	 9.2410 	 9.5465 	 1.9869 	 39.0665 	 2.1002 	 46.8639 	 63.9697 	 7.7974 	 2.7000
  0.3000 	 1.2000 	 9.3500 	 9.4905 	 1.8657 	 41.9735 	 2.0341 	 49.2798 	 52.2689 	 7.3064 	 2.7000
  0.3000 	 1.3000 	 9.4422 	 9.4439 	 1.7618 	 45.1656 	 1.9812 	 51.4461 	 39.9752 	 6.2805 	 2.7000
  0.3000 	 1.4000 	 9.5213 	 9.4046 	 1.6717 	 48.9998 	 1.9381 	 53.3942 	 25.2756 	 4.3944 	 2.7000
  0.3000 	 1.0000 	 9.0569 	 9.8206 	 2.1888 	 35.9112 	 2.2420 	 43.5534 	 75.9936 	 7.6422 	 2.8000
  0.3000 	 1.1000 	 9.1925 	 9.7477 	 2.0404 	 38.6713 	 2.1541 	 46.2643 	 63.9867 	 7.5930 	 2.8000
  0.3000 	 1.2000 	 9.3056 	 9.6882 	 1.9153 	 41.5897 	 2.0847 	 48.6923 	 52.1279 	 7.1026 	 2.8000
  0.3000 	 1.3000 	 9.4012 	 9.6386 	 1.8081 	 44.8007 	 2.0291 	 50.8723 	 39.6054 	 6.0716 	 2.8000
  0.3000 	 1.4000 	 9.4832 	 9.5968 	 1.7152 	 48.6880 	 1.9839 	 52.8351 	 24.4232 	 4.1471 	 2.8000
  0.3000 	 1.0000 	 9.0036 	 10.0245 	 2.2467 	 35.5143 	 2.2996 	 42.9630 	 76.1286 	 7.4487 	 2.9000
  0.3000 	 1.1000 	 9.1441 	 9.9470 	 2.0936 	 38.2822 	 2.2077 	 45.6820 	 63.9997 	 7.3998 	 2.9000
  0.3000 	 1.2000 	 9.2612 	 9.8837 	 1.9646 	 41.2109 	 2.1351 	 48.1210 	 51.9876 	 6.9101 	 2.9000
  0.3000 	 1.3000 	 9.3602 	 9.8312 	 1.8542 	 44.4395 	 2.0768 	 50.3138 	 39.2398 	 5.8743 	 2.9000
